SpectraSuite Datei
++++++++++++++++++++++++++++++++++++
Datum: Wed Apr 14 11:52:23 CEST 2021
Benutzer: Student
Dark-Spektrum vorhanden: Nein
Referenz-Spektrum vorhanden: Nein
Zahl der probierten Teilspektren: 1
Spektrometer: USB2+H04734
Integrationszeit (usec): 65000000 (USB2+H04734)
Spektren Durchschnitt berechnet: 5 (USB2+H04734)
Boxcar Glï¿½ttung: 0 (USB2+H04734)
Dunkelstromkorrektur: Ja (USB2+H04734)
Puls/Lampe aktiviert: Nein (USB2+H04734)
Correct for Detector Non-linearity: Nein (USB2+H04734)
Streulichtkorrektur: Nein (USB2+H04734)
Anzahl Pixel in verarbeitetem Spektrum: 2048
>>>>>Begin Processed Spectral Data<<<<<
418,45	-1592,33
418,57	-1592,33
418,69	-1592,33
418,80	-1681,82
418,92	-1659,67
419,04	18510,64
419,16	4133,62
419,28	4564,34
419,40	3311,95
419,52	4617,22
419,64	9786,35
419,75	3748,54
419,87	3766,17
419,99	2583,38
420,11	3214,32
420,23	4008,42
420,35	6776,71
420,47	4948,51
420,58	3028,56
420,70	5282,52
420,82	4755,52
420,94	6566,10
421,06	10425,43
421,18	6665,53
421,29	5233,70
421,41	3414,99
421,53	5296,07
421,65	8327,41
421,77	8111,82
421,89	4986,03
422,00	10767,57
422,12	4470,33
422,24	5312,35
422,36	9347,95
422,48	9905,67
422,59	5607,93
422,71	8127,19
422,83	3203,47
422,95	4101,98
423,07	7305,51
423,18	10674,01
423,30	9561,72
423,42	4542,20
423,54	5513,47
423,66	4056,33
423,77	6074,81
423,89	4555,30
424,01	4403,44
424,13	3051,16
424,25	3649,56
424,36	6487,46
424,48	5459,23
424,60	4550,78
424,72	9959,91
424,84	4472,59
424,95	9087,16
425,07	5531,55
425,19	5679,79
425,31	6399,32
425,42	3103,59
425,54	7232,75
425,66	8864,79
425,78	4374,06
425,89	5621,94
426,01	4417,91
426,13	4997,78
426,25	10708,36
426,36	4693,15
426,48	7155,01
426,60	7639,06
426,72	4840,04
426,83	8817,34
426,95	6745,98
427,07	8001,09
427,19	12823,56
427,30	5526,12
427,42	2924,61
427,54	3591,26
427,66	4810,66
427,77	9788,61
427,89	6783,49
428,01	6873,89
428,12	7183,48
428,24	2812,07
428,36	7047,44
428,48	2873,99
428,59	3526,18
428,71	5822,16
428,83	3080,09
428,94	4280,06
429,06	4171,13
429,18	7159,08
429,30	5408,16
429,41	4382,20
429,53	8373,06
429,65	8208,99
429,76	6746,43
429,88	4105,15
430,00	6513,22
430,11	9434,27
430,23	4478,02
430,35	12136,12
430,47	4299,49
430,58	3242,80
430,70	8392,94
430,82	6194,58
430,93	17816,88
431,05	5514,37
431,17	4997,78
431,28	9348,85
431,40	3645,04
431,52	11116,94
431,63	2976,59
431,75	2988,34
431,87	7091,73
431,98	8076,11
432,10	5615,61
432,22	4665,13
432,33	9757,43
432,45	5275,28
432,56	5876,40
432,68	7649,46
432,80	4261,98
432,91	7874,09
433,03	5771,54
433,15	9592,91
433,26	6026,00
433,38	4768,63
433,50	2583,83
433,61	9490,31
433,73	10392,44
433,84	7668,44
433,96	3513,07
434,08	5148,73
434,19	5142,41
434,31	5479,57
434,43	5709,62
434,54	5096,31
434,66	2698,63
434,77	2581,12
434,89	7850,13
435,01	6160,68
435,12	3247,77
435,24	4414,29
435,35	4162,54
435,47	11714,44
435,59	6071,65
435,70	3838,49
435,82	5056,08
435,93	8858,47
436,05	5719,57
436,17	4746,94
436,28	5463,30
436,40	6427,80
436,51	3417,25
436,63	4987,38
436,74	8759,03
436,86	10875,14
436,98	21839,37
437,09	4169,32
437,21	7895,33
437,32	3362,11
437,44	7664,83
437,55	4192,83
437,67	31397,53
437,79	13377,67
437,90	6510,96
438,02	3893,17
438,13	60559,71
438,25	8317,92
438,36	7296,47
438,48	7517,94
438,59	8851,24
438,71	5905,32
438,83	10019,11
438,94	3402,79
439,06	9004,90
439,17	8608,08
439,29	3836,23
439,40	5586,69
439,52	4491,58
439,63	7811,71
439,75	3323,24
439,86	3146,53
439,98	6243,39
440,09	8096,00
440,21	4832,81
440,32	6021,48
440,44	2647,56
440,55	5296,98
440,67	4830,55
440,78	9349,75
440,90	3262,23
441,01	4380,39
441,13	3439,85
441,24	6473,90
441,36	10147,47
441,47	3587,19
441,59	8959,25
441,70	6005,66
441,82	8375,32
441,93	6825,53
442,05	2500,67
442,16	3876,00
442,28	2620,44
442,39	5045,69
442,51	7725,39
442,62	4160,29
442,74	8455,77
442,85	4832,81
442,97	12397,36
443,08	7526,07
443,20	8293,96
443,31	6246,56
443,43	3991,25
443,54	6452,20
443,66	2561,23
443,77	3757,13
443,88	2716,26
444,00	5779,68
444,11	8169,22
444,23	9769,63
444,34	3267,65
444,46	3405,50
444,57	10542,94
444,69	8652,82
444,80	6524,52
444,91	14194,82
445,03	6476,61
445,14	8875,64
445,26	2543,15
445,37	3187,20
445,49	5615,61
445,60	9176,20
445,71	11285,97
445,83	5287,94
445,94	3157,37
446,06	8445,82
446,17	28418,63
446,29	2717,61
446,40	4952,13
446,51	8683,56
446,63	5022,64
446,74	3555,56
446,86	3871,93
446,97	13258,80
447,08	11760,09
447,20	4937,21
447,31	2696,82
447,43	5089,53
447,54	5617,87
447,65	7200,66
447,77	3150,59
447,88	4864,90
448,00	5995,72
448,11	2564,85
448,22	3897,24
448,34	6743,72
448,45	2293,22
448,56	4561,63
448,68	6468,47
448,79	9861,38
448,90	6802,02
449,02	4404,35
449,13	4168,42
449,25	6381,24
449,36	4099,27
449,47	4403,89
449,59	10775,70
449,70	5378,78
449,81	3781,99
449,93	4786,71
450,04	4040,51
450,15	4383,56
450,27	4810,66
450,38	6787,11
450,49	4141,75
450,61	11053,21
450,72	4543,55
450,83	7715,45
450,95	4417,45
451,06	6703,95
451,17	10960,11
451,29	6474,35
451,40	2619,99
451,51	2437,39
451,63	2824,27
451,74	8942,53
451,85	4406,15
451,97	8122,67
452,08	5168,62
452,19	3441,21
452,31	9605,57
452,42	5250,88
452,53	11139,08
452,65	8803,78
452,76	2681,00
452,87	2404,40
452,98	3288,44
453,10	4802,98
453,21	3020,88
453,32	3970,01
453,44	3693,86
453,55	2262,93
453,66	12266,74
453,77	9547,71
453,89	7969,00
454,00	10836,72
454,11	6901,91
454,23	5315,96
454,34	5556,86
454,45	4498,36
454,56	6979,65
454,68	12210,69
454,79	4923,65
454,90	5962,27
455,01	3227,43
455,13	7079,08
455,24	10403,74
455,35	4858,57
455,46	1779,33
455,58	2427,45
455,69	9629,07
455,80	6482,03
455,91	2683,71
456,03	4958,91
456,14	9392,24
456,25	3410,47
456,36	2771,85
456,48	4507,39
456,59	9124,22
456,70	3347,20
456,81	9042,42
456,92	9754,71
457,04	7461,44
457,15	14166,35
457,26	2550,84
457,37	4567,96
457,49	3452,96
457,60	2715,35
457,71	5198,90
457,82	31092,46
457,93	5841,14
458,05	8806,49
458,16	3173,19
458,27	4475,76
458,38	5488,61
458,49	7009,93
458,61	4298,59
458,72	5673,92
458,83	5391,44
458,94	7060,10
459,05	6364,97
459,17	21856,99
459,28	3534,76
459,39	4858,12
459,50	2487,11
459,61	8185,49
459,72	2657,05
459,84	2998,73
459,95	4954,84
460,06	21222,44
460,17	3212,97
460,28	4535,42
460,39	5259,47
460,51	6238,42
460,62	4675,98
460,73	4595,08
460,84	1717,86
460,95	10647,80
461,06	11055,02
461,18	9367,38
461,29	8971,01
461,40	5160,03
461,51	6295,82
461,62	15001,58
461,73	7073,65
461,84	6811,51
461,96	6469,38
462,07	7865,95
462,18	3653,63
462,29	5494,94
462,40	8034,53
462,51	4486,15
462,62	9993,35
462,73	10354,92
462,85	7291,05
462,96	7146,87
463,07	8290,35
463,18	13659,70
463,29	7108,46
463,40	4055,43
463,51	3304,26
463,62	3115,34
463,73	7711,38
463,85	10334,13
463,96	5119,36
464,07	5127,49
464,18	5116,19
464,29	2871,28
464,40	7886,29
464,51	5634,60
464,62	4372,71
464,73	2501,57
464,84	31392,11
464,95	4962,52
465,06	4842,75
465,18	2041,92
465,29	6409,72
465,40	11162,59
465,51	5045,23
465,62	7387,77
465,73	4646,15
465,84	6341,92
465,95	6283,17
466,06	3769,79
466,17	4945,80
466,28	4568,86
466,39	10417,75
466,50	2354,23
466,61	1316,97
466,72	5892,67
466,83	2352,42
466,95	2925,52
467,06	1921,25
467,17	4897,89
467,28	3382,45
467,39	4339,26
467,50	6547,57
467,61	2130,96
467,72	2418,86
467,83	3080,54
467,94	5621,49
468,05	2283,27
468,16	6039,56
468,27	5030,77
468,38	2593,77
468,49	9006,71
468,60	2690,04
468,71	9092,58
468,82	8622,09
468,93	7686,52
469,04	10479,67
469,15	4582,42
469,26	3553,30
469,37	4565,25
469,48	8246,05
469,59	6120,01
469,70	2544,06
469,81	5800,02
469,92	1640,58
470,03	7140,55
470,14	2570,72
470,25	7874,09
470,36	4989,64
470,47	1985,88
470,58	2506,54
470,69	6088,37
470,80	8394,30
470,91	3257,26
471,02	3669,00
471,13	5467,82
471,24	5607,93
471,35	4090,23
471,46	11170,72
471,56	7670,25
471,67	8599,49
471,78	10063,41
471,89	4878,46
472,00	3361,66
472,11	6581,46
472,22	8127,19
472,33	4279,60
472,44	5295,62
472,55	5476,41
472,66	5696,06
472,77	4111,92
472,88	13203,21
472,99	6136,28
473,10	1928,48
473,21	3810,01
473,32	4020,18
473,42	2341,58
473,53	2918,28
473,64	9351,11
473,75	6108,26
473,86	3756,68
473,97	6116,39
474,08	8021,88
474,19	8232,95
474,30	13292,25
474,41	6262,38
474,52	11911,95
474,62	4854,05
474,73	3101,33
474,84	13472,13
474,95	8518,14
475,06	8591,35
475,17	2879,87
475,28	1631,09
475,39	4815,64
475,50	2700,44
475,60	2295,02
475,71	2746,54
475,82	8085,61
475,93	2721,68
476,04	9338,00
476,15	4088,87
476,26	6050,86
476,37	3908,99
476,47	3937,47
476,58	3216,13
476,69	1793,79
476,80	1875,60
476,91	4102,43
477,02	5141,95
477,13	5324,55
477,23	3109,47
477,34	5323,19
477,45	5856,51
477,56	4012,94
477,67	3627,87
477,78	5400,93
477,89	4721,63
477,99	3634,65
478,10	7686,52
478,21	6157,97
478,32	4980,15
478,43	3713,74
478,54	11953,53
478,64	5108,06
478,75	5125,68
478,86	3300,65
478,97	4612,70
479,08	4064,02
479,18	3340,87
479,29	3459,74
479,40	2427,00
479,51	1442,16
479,62	3061,56
479,72	3360,31
479,83	1993,11
479,94	5950,52
480,05	6927,22
480,16	2727,55
480,26	3933,85
480,37	2408,01
480,48	8372,60
480,59	4628,07
480,70	4958,91
480,80	4157,12
480,91	2839,64
481,02	1999,44
481,13	5044,78
481,24	4839,59
481,34	2409,82
481,45	13127,73
481,56	4565,25
481,67	6449,94
481,77	3606,18
481,88	3297,03
481,99	7317,26
482,10	5729,51
482,20	20110,60
482,31	3440,76
482,42	6075,71
482,53	3158,73
482,63	13601,39
482,74	7007,67
482,85	2595,13
482,96	2925,52
483,06	2060,00
483,17	6629,37
483,28	2586,54
483,39	4450,45
483,49	6853,10
483,60	13484,79
483,71	2868,12
483,81	7596,13
483,92	4221,30
484,03	4322,99
484,14	3506,29
484,24	3453,41
484,35	4347,85
484,46	4793,49
484,57	3247,77
484,67	5962,27
484,78	4266,50
484,89	12620,63
484,99	4521,86
485,10	4422,43
485,21	5897,64
485,31	5712,33
485,42	5337,66
485,53	3338,61
485,63	4668,75
485,74	10399,67
485,85	15043,16
485,96	30842,52
486,06	3773,85
486,17	3209,80
486,28	5523,41
486,38	1836,28
486,49	7390,48
486,60	2348,81
486,70	9916,97
486,81	3847,98
486,92	2840,09
487,02	3010,03
487,13	1305,67
487,24	3447,99
487,34	4065,37
487,45	10340,46
487,56	4173,84
487,66	2471,74
487,77	6350,06
487,87	3406,41
487,98	1444,42
488,09	4009,78
488,19	1392,00
488,30	13442,30
488,41	2855,91
488,51	1769,39
488,62	5531,55
488,73	2982,91
488,83	4757,33
488,94	6222,15
489,04	10204,42
489,15	2830,15
489,26	2181,13
489,36	5406,35
489,47	3396,92
489,58	2424,29
489,68	5941,93
489,79	2562,13
489,89	4686,37
490,00	3557,36
490,11	5490,42
490,21	5527,03
490,32	2274,23
490,42	4332,48
490,53	5541,04
490,64	2378,19
490,74	2450,05
490,85	1981,36
490,95	6962,92
491,06	5742,16
491,16	6097,86
491,27	8552,94
491,38	3273,53
491,48	12001,89
491,59	10683,05
491,69	5475,50
491,80	1678,54
491,90	9149,98
492,01	2070,85
492,12	6443,16
492,22	3621,09
492,33	8278,14
492,43	4741,96
492,54	2021,58
492,64	2471,74
492,75	4741,06
492,86	8909,54
492,96	4020,18
493,07	2849,13
493,17	5168,17
493,28	5198,90
493,38	5126,14
493,49	6150,29
493,59	6049,95
493,70	4948,51
493,80	2693,20
493,91	2011,64
494,01	2715,80
494,12	3234,66
494,22	7834,31
494,33	9967,14
494,43	9088,07
494,54	10626,10
494,64	5825,78
494,75	2764,62
494,86	8274,98
494,96	2631,74
495,07	4021,08
495,17	8745,02
495,28	3669,90
495,38	2739,76
495,49	4304,91
495,59	5667,59
495,69	4648,86
495,80	4425,14
495,90	3517,14
496,01	48239,58
496,11	6246,11
496,22	4059,50
496,32	2172,54
496,43	7096,25
496,53	3397,37
496,64	3820,86
496,74	5149,19
496,85	6268,25
496,95	9346,59
497,06	3173,64
497,16	5587,14
497,27	4025,60
497,37	8449,44
497,48	2104,29
497,58	2317,17
497,68	3345,39
497,79	7439,29
497,89	3289,35
498,00	4416,10
498,10	1877,86
498,21	8293,96
498,31	3245,51
498,42	2765,07
498,52	8555,65
498,62	4471,24
498,73	4511,01
498,83	5834,37
498,94	4399,83
499,04	9614,15
499,15	3663,57
499,25	2321,69
499,35	6660,56
499,46	10278,99
499,56	12527,97
499,67	6048,15
499,77	1520,35
499,87	6058,09
499,98	3322,79
500,08	1049,41
500,19	2697,27
500,29	4340,62
500,39	8345,03
500,50	7390,93
500,60	4325,25
500,71	4467,62
500,81	5066,02
500,91	2038,31
501,02	3343,13
501,12	5991,20
501,22	2057,74
501,33	6432,32
501,43	6881,12
501,54	2516,94
501,64	2953,54
501,74	3240,99
501,85	13086,60
501,95	2717,16
502,05	2647,10
502,16	3767,98
502,26	9687,37
502,37	6211,76
502,47	4712,59
502,57	3747,64
502,68	3637,36
502,78	2768,68
502,88	3419,97
502,99	1566,00
503,09	7348,00
503,19	2271,52
503,30	1661,37
503,40	2793,99
503,50	3176,36
503,61	4286,84
503,71	3520,30
503,81	3707,42
503,92	4833,71
504,02	7526,52
504,12	16430,70
504,23	8237,01
504,33	3826,28
504,43	3892,72
504,54	6941,23
504,64	6614,46
504,74	16869,56
504,84	4505,13
504,95	3364,37
505,05	1084,21
505,15	8966,49
505,26	1941,59
505,36	3087,77
505,46	2998,28
505,56	5789,62
505,67	5723,18
505,77	5864,65
505,87	2483,04
505,98	1547,92
506,08	3617,47
506,18	24135,35
506,28	6334,24
506,39	3634,20
506,49	3237,37
506,59	3241,44
506,70	1989,04
506,80	5011,34
506,90	11170,27
507,00	1415,95
507,11	4699,03
507,21	7348,90
507,31	6211,76
507,41	4403,89
507,52	3343,58
507,62	4531,35
507,72	10437,18
507,82	8259,16
507,93	3376,58
508,03	7017,16
508,13	5238,67
508,23	3980,40
508,34	5287,04
508,44	2444,17
508,54	2616,37
508,64	5323,19
508,74	1614,36
508,85	3118,96
508,95	4046,84
509,05	4421,07
509,15	3915,32
509,26	5584,43
509,36	2484,40
509,46	5001,39
509,56	2264,74
509,66	4540,84
509,77	3946,96
509,87	3793,74
509,97	4432,37
510,07	5290,20
510,17	1990,85
510,28	14823,06
510,38	8267,75
510,48	4006,16
510,58	6632,99
510,68	5417,65
510,78	6974,67
510,89	4054,98
510,99	2438,30
511,09	9013,49
511,19	6974,67
511,29	2716,26
511,39	8331,47
511,50	8622,09
511,60	2359,65
511,70	6878,86
511,80	7397,71
511,90	8688,08
512,00	4227,18
512,11	20478,05
512,21	5295,17
512,31	2171,64
512,41	10134,37
512,51	5056,53
512,61	12932,48
512,71	13730,20
512,82	3536,12
512,92	1256,86
513,02	5774,25
513,12	3640,98
513,22	3202,12
513,32	7102,13
513,42	5075,06
513,53	7668,89
513,63	5753,46
513,73	6783,49
513,83	2024,75
513,93	5940,58
514,03	6848,58
514,13	9401,28
514,23	2643,04
514,33	3618,38
514,44	3594,42
514,54	3313,30
514,64	11172,08
514,74	4608,18
514,84	3560,07
514,94	6882,93
515,04	6524,06
515,14	5192,57
515,24	5790,52
515,34	5135,63
515,44	1312,90
515,55	1338,66
515,65	6273,22
515,75	3044,38
515,85	3642,78
515,95	6399,77
516,05	8945,70
516,15	5697,42
516,25	2289,60
516,35	2821,56
516,45	3191,72
516,55	2862,24
516,65	4105,15
516,75	12242,33
516,85	6025,55
516,95	7250,83
517,05	8354,98
517,16	2356,94
517,26	16289,23
517,36	3054,78
517,46	2232,65
517,56	5400,48
517,66	4085,71
517,76	3239,18
517,86	3260,87
517,96	6237,52
518,06	2758,74
518,16	3027,66
518,26	6078,43
518,36	3004,61
518,46	4219,04
518,56	7188,45
518,66	9062,76
518,76	6421,02
518,86	9963,52
518,96	5438,90
519,06	6436,84
519,16	9348,85
519,26	8092,39
519,36	9180,72
519,46	6960,66
519,56	11298,18
519,66	13573,37
519,76	3968,65
519,86	4115,54
519,96	5713,24
520,06	4344,69
520,16	11493,88
520,26	4885,24
520,36	3855,21
520,46	3732,73
520,56	5209,75
520,66	4142,21
520,76	3287,99
520,86	4244,35
520,96	9045,13
521,06	6471,18
521,16	2989,24
521,26	4566,60
521,35	6795,24
521,45	2704,05
521,55	4301,75
521,65	9468,62
521,75	8447,18
521,85	2805,74
521,95	6200,01
522,05	3679,85
522,15	4881,17
522,25	52153,15
522,35	11433,77
522,45	9337,10
522,55	15865,29
522,65	16394,54
522,75	24552,97
522,85	21537,91
522,94	26188,63
523,04	28375,24
523,14	25897,11
523,24	22109,19
523,34	19404,18
523,44	18293,70
523,54	12342,22
523,64	9364,67
523,74	14852,89
523,84	9838,78
523,94	6661,91
524,03	3839,84
524,13	6922,25
524,23	6675,93
524,33	3418,61
524,43	4542,65
524,53	4916,42
524,63	3222,91
524,73	3352,62
524,83	2196,49
524,92	4676,88
525,02	1689,84
525,12	6834,57
525,22	4284,58
525,32	2126,44
525,42	7911,15
525,52	4371,80
525,61	5570,42
525,71	1368,49
525,81	5246,81
525,91	2215,93
526,01	44194,94
526,11	5367,94
526,21	6530,39
526,30	5190,77
526,40	5618,33
526,50	7613,75
526,60	6562,03
526,70	6244,75
526,80	5871,88
526,89	3422,23
526,99	2465,87
527,09	8449,89
527,19	10567,35
527,29	6926,31
527,39	4177,91
527,48	5629,17
527,58	5262,18
527,68	1900,01
527,78	8500,51
527,88	13540,83
527,97	4272,37
528,07	2317,62
528,17	7986,63
528,27	8102,78
528,37	4152,60
528,46	2653,88
528,56	10224,76
528,66	10537,52
528,76	1872,44
528,86	7242,69
528,95	4399,83
529,05	4758,24
529,15	4697,67
529,25	6734,23
529,35	7144,16
529,44	6116,84
529,54	9033,38
529,64	5961,82
529,74	3612,05
529,83	2163,05
529,93	3436,69
530,03	5418,56
530,13	4533,16
530,22	8518,14
530,32	7852,39
530,42	6726,09
530,52	1086,47
530,61	7129,70
530,71	3053,87
530,81	6982,81
530,91	3798,26
531,00	3925,71
531,10	3259,07
531,20	5403,19
531,30	3428,55
531,39	4361,41
531,49	2847,78
531,59	12547,41
531,69	7175,80
531,78	3610,69
531,88	6726,55
531,98	12673,06
532,07	3941,08
532,17	6617,62
532,27	8981,40
532,37	5117,55
532,46	6188,25
532,56	5191,67
532,66	2208,70
532,75	4093,85
532,85	4809,31
532,95	3970,91
533,04	4082,10
533,14	5135,17
533,24	6008,82
533,34	3141,10
533,43	6438,19
533,53	1504,99
533,63	5719,57
533,72	3597,14
533,82	2345,19
533,92	2185,20
534,01	14774,70
534,11	16375,11
534,21	5993,46
534,30	3430,81
534,40	4066,73
534,50	5277,54
534,59	3363,47
534,69	2340,22
534,79	4648,41
534,88	9228,17
534,98	7147,78
535,08	968,96
535,17	11203,72
535,27	4599,60
535,36	2666,09
535,46	6699,43
535,56	1936,16
535,65	5742,16
535,75	7010,38
535,85	4815,64
535,94	2982,01
536,04	4062,66
536,14	6395,71
536,23	9243,09
536,33	2998,28
536,42	4888,40
536,52	3544,26
536,62	4930,43
536,71	10985,87
536,81	4549,88
536,90	4359,15
537,00	4883,88
537,10	4170,23
537,19	4611,80
537,29	5955,94
537,38	7623,24
537,48	4252,94
537,58	4308,08
537,67	2589,70
537,77	3645,95
537,86	3173,19
537,96	34614,63
538,06	4294,97
538,15	22858,55
538,25	11706,30
538,34	13341,06
538,44	11546,76
538,53	6103,74
538,63	2574,79
538,73	6784,40
538,82	4736,54
538,92	4349,66
539,01	12395,55
539,11	2704,50
539,20	14176,74
539,30	6984,17
539,39	4585,58
539,49	7953,63
539,59	12778,36
539,68	17392,03
539,78	17230,22
539,87	12022,68
539,97	14908,48
540,06	17100,96
540,16	16140,99
540,25	24727,43
540,35	34677,45
540,44	38233,51
540,54	47839,14
540,63	58588,68
540,73	54310,83
540,82	56276,43
540,92	55462,44
541,01	54908,78
541,11	52692,34
541,20	45284,18
541,30	36608,70
541,39	31399,79
541,49	22359,13
541,58	23151,42
541,68	19262,71
541,77	12984,91
541,87	8032,27
541,96	7164,50
542,06	12227,87
542,15	9786,35
542,25	14210,19
542,34	10410,06
542,44	5852,90
542,53	7311,84
542,63	8717,45
542,72	5790,98
542,82	5593,47
542,91	7130,60
543,01	5019,02
543,10	9456,42
543,20	6567,45
543,29	8579,60
543,38	4830,10
543,48	6243,39
543,57	5579,00
543,67	5630,53
543,76	6385,31
543,86	6275,48
543,95	15403,38
544,05	14775,15
544,14	17429,54
544,23	9120,15
544,33	8847,62
544,42	13788,05
544,52	12279,39
544,61	16296,46
544,71	24698,50
544,80	29501,09
544,89	26825,00
544,99	30283,44
545,08	33858,04
545,18	26840,82
545,27	37672,17
545,36	34254,86
545,46	24893,30
545,55	20530,93
545,65	16066,86
545,74	11768,67
545,84	8134,42
545,93	10347,69
546,02	9560,37
546,12	13325,69
546,21	10500,46
546,30	8150,24
546,40	8658,25
546,49	5414,94
546,59	8378,03
546,68	5903,52
546,77	10577,74
546,87	7933,29
546,96	10539,78
547,05	8412,83
547,15	5174,95
547,24	7156,82
547,34	5276,64
547,43	7158,17
547,52	10845,31
547,62	8390,23
547,71	9317,66
547,80	8943,89
547,90	6569,26
547,99	13479,81
548,08	8018,26
548,18	3448,89
548,27	5731,32
548,36	4519,60
548,46	5307,37
548,55	7498,95
548,64	12645,49
548,74	9152,24
548,83	7406,30
548,92	13584,67
549,02	6787,11
549,11	17138,02
549,20	8891,01
549,30	5674,82
549,39	7390,48
549,48	14963,62
549,58	4331,13
549,67	8588,64
549,76	7116,59
549,85	4172,04
549,95	11043,72
550,04	9719,46
550,13	3984,02
550,23	9137,78
550,32	4936,31
550,41	4624,00
550,50	7982,11
550,60	12974,06
550,69	6595,48
550,78	3778,37
550,88	10010,98
550,97	10513,11
551,06	7039,31
551,15	7029,81
551,25	12740,40
551,34	4445,02
551,43	6308,03
551,52	8299,39
551,62	11322,13
551,71	11180,67
551,80	10115,38
551,89	9071,34
551,99	6973,32
552,08	7106,65
552,17	5801,37
552,26	8894,17
552,36	4154,86
552,45	4781,74
552,54	4448,64
552,63	9651,67
552,73	15478,41
552,82	15019,21
552,91	9148,18
553,00	20061,79
553,10	9802,62
553,19	17416,43
553,28	9910,64
553,37	34025,26
553,46	11195,58
553,56	18452,79
553,65	15040,90
553,74	16681,99
553,83	23631,41
553,92	24038,63
554,02	28636,48
554,11	27586,11
554,20	26565,12
554,29	36739,32
554,38	29182,00
554,48	30470,10
554,57	28239,20
554,66	28769,36
554,75	34998,34
554,84	32767,89
554,94	31704,87
555,03	28721,45
555,12	28052,99
555,21	26685,79
555,30	35735,05
555,39	24136,26
555,49	22991,88
555,58	23517,97
555,67	22350,54
555,76	21811,35
555,85	13301,74
555,94	11684,61
556,03	12142,00
556,13	14671,20
556,22	10411,42
556,31	18063,65
556,40	6530,39
556,49	13040,05
556,58	8741,41
556,67	11203,72
556,77	7647,65
556,86	13780,82
556,95	10321,03
557,04	14210,19
557,13	14857,86
557,22	12272,16
557,31	8624,80
557,40	7298,73
557,50	12453,40
557,59	5309,18
557,68	7525,17
557,77	11970,70
557,86	8218,94
557,95	7821,66
558,04	7954,08
558,13	10754,91
558,22	8590,90
558,31	6552,99
558,41	4479,82
558,50	10905,42
558,59	14854,69
558,68	11578,85
558,77	10543,85
558,86	4310,79
558,95	4679,14
559,04	8276,79
559,13	11340,21
559,22	5383,30
559,31	6572,43
559,40	8812,82
559,49	62685,30
559,59	17737,78
559,68	4170,68
559,77	13236,66
559,86	15047,68
559,95	7591,61
560,04	6870,72
560,13	8707,51
560,22	16239,06
560,31	8378,03
560,40	8383,90
560,49	4451,80
560,58	6153,90
560,67	4871,68
560,76	4835,52
560,85	3645,95
560,94	11959,85
561,03	5452,45
561,12	20834,20
561,21	17181,86
561,30	6912,30
561,39	6837,28
561,48	9686,47
561,57	4287,29
561,66	9590,20
561,75	14622,83
561,84	28335,92
561,93	6711,18
562,02	9013,94
562,11	4708,07
562,20	5373,36
562,29	7533,76
562,38	4097,46
562,47	10975,93
562,56	11670,60
562,65	5829,39
562,74	7739,40
562,83	20276,92
562,92	9079,48
563,01	13547,16
563,10	4527,73
563,19	6243,39
563,28	22323,88
563,37	11421,11
563,46	4506,94
563,55	6206,78
563,64	19692,53
563,73	4522,31
563,82	9147,27
563,91	13565,69
564,00	7183,03
564,09	4819,70
564,18	8181,87
564,27	4118,70
564,35	10049,85
564,44	7329,92
564,53	10535,26
564,62	9994,26
564,71	8415,99
564,80	8562,88
564,89	9258,00
564,98	61559,45
565,07	9999,23
565,16	5234,16
565,25	28830,37
565,34	37666,75
565,43	6979,65
565,51	5238,67
565,60	13534,95
565,69	6757,73
565,78	14765,66
565,87	3240,54
565,96	2826,53
566,05	9518,34
566,14	12507,64
566,23	9009,88
566,32	14010,87
566,40	10825,42
566,49	18850,07
566,58	7019,42
566,67	7360,20
566,76	5088,17
566,85	6700,78
566,94	7823,47
567,03	16710,01
567,11	6635,25
567,20	8683,10
567,29	12503,12
567,38	9556,30
567,47	4168,87
567,56	7583,47
567,65	7900,75
567,73	4430,56
567,82	4609,54
567,91	8874,74
568,00	7361,56
568,09	8454,86
568,18	5095,40
568,27	6999,53
568,35	7997,92
568,44	5815,38
568,53	8519,04
568,62	4609,09
568,71	4746,03
568,80	5654,48
568,88	10570,96
568,97	12946,49
569,06	4209,55
569,15	8122,21
569,24	9115,63
569,32	18704,99
569,41	7609,69
569,50	4184,69
569,59	3842,55
569,68	4514,17
569,76	7150,94
569,85	9578,00
569,94	10427,69
570,03	6110,06
570,12	9976,18
570,20	32813,54
570,29	9617,32
570,38	8448,53
570,47	13627,15
570,56	4252,94
570,64	6234,35
570,73	7307,77
570,82	8090,58
570,91	10305,66
570,99	4322,09
571,08	6294,01
571,17	5656,29
571,26	11770,93
571,34	5281,16
571,43	8268,20
571,52	9135,52
571,61	5487,26
571,69	4255,20
571,78	9726,69
571,87	11415,24
571,96	10772,54
572,04	10116,74
572,13	10516,73
572,22	5543,75
572,31	4116,44
572,39	5396,86
572,48	7795,44
572,57	5877,75
572,66	5012,69
572,74	3483,24
572,83	8690,79
572,92	5874,59
573,00	4079,38
573,09	9158,12
573,18	10683,05
573,27	11795,79
573,35	4886,14
573,44	3977,69
573,53	6750,05
573,61	6993,66
573,70	9813,02
573,79	4922,75
573,87	15363,15
573,96	5129,30
574,05	6578,30
574,14	6407,01
574,22	5169,98
574,31	12950,56
574,40	4076,22
574,48	7116,59
574,57	7671,15
574,66	9757,88
574,74	6715,70
574,83	11235,81
574,92	11398,51
575,00	14024,43
575,09	11376,82
575,18	5447,48
575,26	13219,93
575,35	5369,29
575,43	5795,04
575,52	9936,40
575,61	13064,46
575,69	10493,23
575,78	5136,53
575,87	15901,90
575,95	8579,60
576,04	6923,15
576,13	8118,15
576,21	5527,48
576,30	8716,55
576,38	7730,36
576,47	9657,09
576,56	21404,58
576,64	6905,52
576,73	10483,28
576,82	9314,50
576,90	7517,48
576,99	11272,87
577,07	8007,42
577,16	10234,70
577,25	9149,08
577,33	16670,24
577,42	7588,90
577,50	5304,66
577,59	7908,44
577,68	11961,21
577,76	7131,05
577,85	6679,54
577,93	8061,20
578,02	8413,73
578,10	7590,70
578,19	8082,44
578,28	6390,28
578,36	7276,59
578,45	9288,74
578,53	5014,95
578,62	5322,74
578,70	5585,33
578,79	7896,68
578,88	7935,10
578,96	5382,40
579,05	5529,29
579,13	20712,62
579,22	9328,51
579,30	6052,21
579,39	9897,08
579,47	14618,32
579,56	6913,66
579,64	40994,57
579,73	7132,41
579,82	9639,91
579,90	5723,63
579,99	6215,37
580,07	9536,41
580,16	8123,12
580,24	10856,15
580,33	3934,75
580,41	8243,79
580,50	4794,39
580,58	7613,30
580,67	6575,14
580,75	10301,14
580,84	7145,07
580,92	4579,71
581,01	14372,90
581,09	8527,18
581,18	6581,01
581,26	5455,17
581,35	5433,47
581,43	10311,08
581,52	7559,97
581,60	8858,47
581,69	6706,21
581,77	7796,35
581,86	8187,75
581,94	6200,91
582,02	12238,26
582,11	4491,12
582,19	12423,12
582,28	16575,33
582,36	14578,09
582,45	14733,57
582,53	4905,58
582,62	5289,75
582,70	5273,48
582,79	8636,55
582,87	4564,79
582,96	8868,41
583,04	12900,85
583,12	7707,76
583,21	7525,62
583,29	9619,58
583,38	8489,21
583,46	6968,35
583,55	7585,28
583,63	4203,22
583,71	8844,00
583,80	7195,23
583,88	5334,04
583,97	17195,87
584,05	9981,15
584,13	10117,19
584,22	9201,06
584,30	5726,80
584,39	9526,92
584,47	10608,93
584,55	5197,55
584,64	7673,86
584,72	7955,44
584,81	5685,22
584,89	4929,53
584,97	4698,58
585,06	5577,65
585,14	6846,32
585,23	8006,51
585,31	5229,18
585,39	6165,66
585,48	7997,47
585,56	3913,06
585,64	7807,19
585,73	6916,37
585,81	6776,71
585,90	10257,75
585,98	5742,16
586,06	20541,78
586,15	12947,85
586,23	3774,31
586,31	5172,69
586,40	4436,44
586,48	11635,34
586,56	4822,41
586,65	5073,26
586,73	4787,61
586,81	9461,84
586,90	5974,47
586,98	3579,06
587,06	3460,64
587,15	6050,40
587,23	5847,92
587,31	6746,88
587,40	4949,42
587,48	4380,84
587,56	11131,85
587,65	17428,18
587,73	9135,97
587,81	7872,28
587,90	16786,85
587,98	6074,36
588,06	4921,85
588,14	4589,65
588,23	5526,58
588,31	14357,08
588,39	9228,17
588,48	6162,94
588,56	4913,71
588,64	8392,49
588,72	7457,37
588,81	5460,14
588,89	6621,24
588,97	6992,75
589,06	11340,21
589,14	11092,53
589,22	9338,45
589,30	6169,27
589,39	4916,42
589,47	9592,46
589,55	13653,82
589,63	7445,62
589,72	5626,91
589,80	5348,95
589,88	8556,55
589,96	9833,81
590,05	7819,40
590,13	7612,40
590,21	10967,79
590,29	12122,56
590,38	18882,61
590,46	11472,18
590,54	7766,07
590,62	5260,82
590,71	10494,13
590,79	11495,69
590,87	3655,44
590,95	4518,69
591,03	6314,80
591,12	8863,44
591,20	6679,09
591,28	13840,93
591,36	8186,39
591,44	6075,26
591,53	6790,27
591,61	6425,54
591,69	4820,15
591,77	7486,75
591,85	7418,05
591,94	4774,05
592,02	5555,50
592,10	9986,12
592,18	9518,34
592,26	6833,66
592,34	4390,34
592,43	3444,82
592,51	3978,59
592,59	4984,22
592,67	4523,67
592,75	4967,95
592,84	6124,08
592,92	10189,51
593,00	5430,31
593,08	5791,43
593,16	4210,91
593,24	6182,38
593,32	9237,67
593,41	7606,52
593,49	3799,62
593,57	5209,75
593,65	4853,60
593,73	7863,24
593,81	9494,83
593,89	10603,05
593,98	6120,01
594,06	4439,15
594,14	5719,11
594,22	5299,24
594,30	5053,82
594,38	5943,74
594,46	11478,06
594,54	9897,99
594,62	9307,27
594,71	6162,94
594,79	4878,46
594,87	6947,10
594,95	6376,27
595,03	11095,24
595,11	6558,41
595,19	13131,35
595,27	6144,41
595,35	4939,47
595,43	4759,59
595,52	5322,29
595,60	5673,92
595,68	14642,72
595,76	4038,25
595,84	8779,82
595,92	4326,16
596,00	11754,21
596,08	10070,19
596,16	7682,45
596,24	6537,17
596,32	5824,42
596,40	8543,90
596,48	8368,99
596,56	8326,50
596,64	4629,88
596,73	11864,49
596,81	4962,52
596,89	7885,38
596,97	3351,27
597,05	19899,98
597,13	5593,02
597,21	3635,10
597,29	12347,64
597,37	12699,27
597,45	8143,91
597,53	3706,96
597,61	7244,95
597,69	9205,12
597,77	6037,75
597,85	5108,96
597,93	6880,21
598,01	5790,07
598,09	9399,92
598,17	6269,61
598,25	6857,16
598,33	3614,31
598,41	5524,32
598,49	3642,78
598,57	4575,19
598,65	5965,44
598,73	6568,36
598,81	7505,73
598,89	6046,79
598,97	4119,61
599,05	11277,39
599,13	7139,64
599,21	6393,90
599,29	6969,25
599,37	5909,84
599,45	4788,52
599,53	16863,68
599,61	4792,58
599,69	7847,87
599,77	6117,75
599,85	4582,87
599,93	5605,22
600,00	3356,24
600,08	8286,28
600,16	4374,06
600,24	3998,03
600,32	12439,84
600,40	13616,31
600,48	11055,02
600,56	10194,48
600,64	12086,86
600,72	5983,51
600,80	6609,94
600,88	7742,56
600,96	11315,35
601,04	3789,22
601,12	4773,15
601,19	2797,61
601,27	9464,10
601,35	6403,84
601,43	9248,96
601,51	7126,53
601,59	5990,75
601,67	4453,16
601,75	5103,99
601,83	6712,99
601,91	3330,02
601,98	3843,91
602,06	10285,32
602,14	7079,08
602,22	7991,60
602,30	9983,41
602,38	6842,70
602,46	3944,25
602,54	10136,17
602,61	7286,98
602,69	6560,67
602,77	3545,61
602,85	4033,73
602,93	4118,70
603,01	6407,91
603,09	10339,56
603,17	5028,96
603,24	7707,31
603,32	3398,27
603,40	14773,34
603,48	8552,03
603,56	3162,80
603,64	3765,27
603,71	4045,03
603,79	7120,66
603,87	7257,15
603,95	15844,50
604,03	5381,95
604,11	9835,62
604,18	7105,74
604,26	4507,85
604,34	3302,00
604,42	5540,14
604,50	4183,34
604,57	4257,01
604,65	6048,15
604,73	6242,49
604,81	48834,82
604,89	4582,87
604,96	5314,60
605,04	7752,96
605,12	5299,24
605,20	8696,21
605,28	11297,27
605,35	6399,32
605,43	6846,77
605,51	5158,22
605,59	9979,79
605,67	13967,48
605,74	10057,98
605,82	6649,71
605,90	3859,73
605,98	12521,20
606,05	6034,59
606,13	8204,92
606,21	5960,01
606,29	5976,73
606,36	6083,85
606,44	4488,86
606,52	6340,57
606,60	5573,13
606,67	3275,79
606,75	4849,53
606,83	2599,65
606,91	9104,79
606,98	3995,32
607,06	6111,42
607,14	5178,11
607,22	5622,39
607,29	4405,70
607,37	6184,19
607,45	7750,70
607,52	8601,75
607,60	8300,29
607,68	5743,97
607,76	7620,53
607,83	2706,76
607,91	8065,27
607,99	5870,97
608,06	6837,73
608,14	4874,84
608,22	5794,14
608,30	10725,08
608,37	3623,80
608,45	2388,58
608,53	6596,38
608,60	7009,93
608,68	4159,38
608,76	5181,73
608,83	8478,82
608,91	3671,71
608,99	8489,66
609,06	8142,55
609,14	8060,75
609,22	5505,33
609,29	4243,45
609,37	3722,78
609,45	9431,11
609,52	3897,69
609,60	3890,46
609,68	4329,32
609,75	5864,20
609,83	3070,60
609,91	13537,21
609,98	4738,80
610,06	7529,24
610,13	8357,24
610,21	6291,30
610,29	6251,53
610,36	2829,25
610,44	4430,56
610,52	10288,94
610,59	4608,18
610,67	3427,20
610,74	5777,42
610,82	5458,33
610,90	7120,66
610,97	4704,90
611,05	7532,85
611,13	7164,95
611,20	22610,87
611,28	4138,59
611,35	5554,15
611,43	7460,99
611,51	7232,75
611,58	6370,85
611,66	10986,32
611,73	3696,12
611,81	10657,74
611,88	6717,05
611,96	8388,87
612,04	3656,80
612,11	3649,11
612,19	12180,87
612,26	4948,96
612,34	5963,63
612,41	5373,81
612,49	2476,26
612,57	2703,60
612,64	3447,54
612,72	13030,56
612,79	13832,80
612,87	2712,64
612,94	2396,26
613,02	6040,46
613,09	5163,65
613,17	7504,38
613,24	4881,62
613,32	8678,13
613,40	4395,31
613,47	5186,70
613,55	3235,56
613,62	9499,81
613,70	9822,06
613,77	3928,88
613,85	8873,38
613,92	4990,09
614,00	3250,03
614,07	4619,48
614,15	2357,39
614,22	3231,95
614,30	6856,26
614,37	2962,12
614,45	6274,13
614,52	3702,90
614,60	4981,96
614,67	8247,86
614,75	2576,60
614,82	7422,57
614,90	4065,37
614,97	3241,44
615,05	11423,82
615,12	8316,56
615,20	5721,37
615,27	5659,45
615,34	5312,35
615,42	5291,55
615,49	5402,29
615,57	2816,14
615,64	3604,37
615,72	4095,65
615,79	4761,85
615,87	6737,84
615,94	12924,35
616,02	6104,64
616,09	9561,72
616,16	6798,86
616,24	5842,05
616,31	3124,83
616,39	10490,51
616,46	9027,50
616,54	6141,25
616,61	11946,30
616,68	3967,30
616,76	5051,56
616,83	8415,54
616,91	4029,22
616,98	3542,00
617,06	9086,26
617,13	3706,06
617,20	4290,00
617,28	5456,07
617,35	3139,75
617,43	9748,39
617,50	4167,97
617,57	5217,43
>>>>>End Processed Spectral Data<<<<<
