SpectraSuite Datei
++++++++++++++++++++++++++++++++++++
Datum: Tue Apr 13 12:43:54 CEST 2021
Benutzer: Student
Dark-Spektrum vorhanden: Nein
Referenz-Spektrum vorhanden: Nein
Zahl der probierten Teilspektren: 1
Spektrometer: USB2+H04734
Integrationszeit (usec): 200000 (USB2+H04734)
Spektren Durchschnitt berechnet: 100 (USB2+H04734)
Boxcar Glättung: 0 (USB2+H04734)
Dunkelstromkorrektur: Ja (USB2+H04734)
Puls/Lampe aktiviert: Nein (USB2+H04734)
Correct for Detector Non-linearity: Nein (USB2+H04734)
Streulichtkorrektur: Nein (USB2+H04734)
Anzahl Pixel in verarbeitetem Spektrum: 2048
>>>>>Begin Processed Spectral Data<<<<<
418,45	880,17
418,57	880,17
418,69	880,17
418,80	804,14
418,92	796,19
419,04	833,21
419,16	786,63
419,28	775,24
419,40	769,41
419,52	768,71
419,64	784,01
419,75	772,30
419,87	770,47
419,99	772,37
420,11	780,76
420,23	784,24
420,35	801,16
420,47	804,71
420,58	808,39
420,70	821,39
420,82	833,75
420,94	851,78
421,06	863,65
421,18	861,39
421,29	914,65
421,41	1027,84
421,53	1050,92
421,65	1064,09
421,77	1061,49
421,89	1064,66
422,00	1087,03
422,12	1080,21
422,24	1090,87
422,36	1107,98
422,48	1109,49
422,59	1097,02
422,71	1102,51
422,83	1101,76
422,95	1102,94
423,07	1110,96
423,18	1127,25
423,30	1119,12
423,42	1112,88
423,54	1115,59
423,66	1109,72
423,77	1114,67
423,89	1114,51
424,01	1102,53
424,13	1106,94
424,25	1105,36
424,36	1112,23
424,48	1109,13
424,60	1105,61
424,72	1124,93
424,84	1109,33
424,95	1113,33
425,07	1108,48
425,19	1096,02
425,31	1103,37
425,42	1095,98
425,54	1109,09
425,66	1105,24
425,78	1098,85
425,89	1104,23
426,01	1095,98
426,13	1092,00
426,25	1107,89
426,36	1093,76
426,48	1097,27
426,60	1095,12
426,72	1099,21
426,83	1106,10
426,95	1092,77
427,07	1098,98
427,19	1118,44
427,30	1100,09
427,42	1091,05
427,54	1081,40
427,66	1089,58
427,77	1100,39
427,89	1100,57
428,01	1100,07
428,12	1097,92
428,24	1090,49
428,36	1095,93
428,48	1087,17
428,59	1087,96
428,71	1096,11
428,83	1086,31
428,94	1089,81
429,06	1096,59
429,18	1098,49
429,30	1098,22
429,41	1088,16
429,53	1103,12
429,65	1102,92
429,76	1097,40
429,88	1085,43
430,00	1093,24
430,11	1106,83
430,23	1097,70
430,35	1111,59
430,47	1091,64
430,58	1093,18
430,70	1109,36
430,82	1100,02
430,93	1136,72
431,05	1096,95
431,17	1100,63
431,28	1100,41
431,40	1093,11
431,52	1115,68
431,63	1094,46
431,75	1088,66
431,87	1107,28
431,98	1107,12
432,10	1092,93
432,22	1086,51
432,33	1105,58
432,45	1091,91
432,56	1104,63
432,68	1102,53
432,80	1091,26
432,91	1111,30
433,03	1100,32
433,15	1107,96
433,26	1101,99
433,38	1096,30
433,50	1093,74
433,61	1108,75
433,73	1117,83
433,84	1113,88
433,96	1094,13
434,08	1103,26
434,19	1110,22
434,31	1102,51
434,43	1103,12
434,54	1099,50
434,66	1098,58
434,77	1093,09
434,89	1112,02
435,01	1105,99
435,12	1105,58
435,24	1101,81
435,35	1103,66
435,47	1116,41
435,59	1103,84
435,70	1105,13
435,82	1106,35
435,93	1113,65
436,05	1114,40
436,17	1112,66
436,28	1116,66
436,40	1117,67
436,51	1107,62
436,63	1115,48
436,74	1121,70
436,86	1122,24
436,98	1161,76
437,09	1113,99
437,21	1124,11
437,32	1116,50
437,44	1125,94
437,55	1120,95
437,67	1189,72
437,79	1147,37
437,90	1128,23
438,02	1122,10
438,13	1344,67
438,25	1145,74
438,36	1137,70
438,48	1138,76
438,59	1141,67
438,71	1137,67
438,83	1164,97
438,94	1134,33
439,06	1150,26
439,17	1148,43
439,29	1141,06
439,40	1144,57
439,52	1148,68
439,63	1162,17
439,75	1148,20
439,86	1152,68
439,98	1161,49
440,09	1171,41
440,21	1157,99
440,32	1167,91
440,44	1154,44
440,55	1168,16
440,67	1159,77
440,78	1190,15
440,90	1169,33
441,01	1170,96
441,13	1177,33
441,24	1186,73
441,36	1203,23
441,47	1189,20
441,59	1200,65
441,70	1199,68
441,82	1213,29
441,93	1207,89
442,05	1189,97
442,16	1203,98
442,28	1198,64
442,39	1209,54
442,51	1216,50
442,62	1209,51
442,74	1233,40
442,85	1217,08
442,97	1249,71
443,08	1235,79
443,20	1240,49
443,31	1243,14
443,43	1231,88
443,54	1249,29
443,66	1240,49
443,77	1240,16
443,88	1252,99
444,00	1265,24
444,11	1275,50
444,23	1284,13
444,34	1265,96
444,46	1265,67
444,57	1299,91
444,69	1298,23
444,80	1293,44
444,91	1318,93
445,03	1305,28
445,14	1308,61
445,26	1295,82
445,37	1309,80
445,49	1324,13
445,60	1341,40
445,71	1344,67
445,83	1334,96
445,94	1325,51
446,06	1350,25
446,17	1403,09
446,29	1347,52
446,40	1354,59
446,51	1374,07
446,63	1367,81
446,74	1377,49
446,86	1372,24
446,97	1402,66
447,08	1415,45
447,20	1400,11
447,31	1400,06
447,43	1413,08
447,54	1419,00
447,65	1429,89
447,77	1417,89
447,88	1433,96
448,00	1440,38
448,11	1439,20
448,22	1457,12
448,34	1474,61
448,45	1463,47
448,56	1481,91
448,68	1492,17
448,79	1494,54
448,90	1500,35
449,02	1510,23
449,13	1513,08
449,25	1523,88
449,36	1523,76
449,47	1524,96
449,59	1564,24
449,70	1554,52
449,81	1555,20
449,93	1570,68
450,04	1576,40
450,15	1575,22
450,27	1599,69
450,38	1618,20
450,49	1604,44
450,61	1635,35
450,72	1617,55
450,83	1641,48
450,95	1647,60
451,06	1660,53
451,17	1678,97
451,29	1691,80
451,40	1673,95
451,51	1685,05
451,63	1693,32
451,74	1713,02
451,85	1721,02
451,97	1734,76
452,08	1746,88
452,19	1745,52
452,31	1775,60
452,42	1774,04
452,53	1789,66
452,65	1796,64
452,76	1795,89
452,87	1800,39
452,98	1815,21
453,10	1831,39
453,21	1838,81
453,32	1837,11
453,44	1854,54
453,55	1878,17
453,66	1901,18
453,77	1912,66
453,89	1925,76
454,00	1934,85
454,11	1934,49
454,23	1943,96
454,34	1971,35
454,45	1973,63
454,56	1990,67
454,68	2006,73
454,79	2006,15
454,90	2028,16
455,01	2028,09
455,13	2045,24
455,24	2072,52
455,35	2078,48
455,46	2076,31
455,58	2087,23
455,69	2132,36
455,80	2124,77
455,91	2125,67
456,03	2142,84
456,14	2183,36
456,25	2181,94
456,36	2175,32
456,48	2209,35
456,59	2217,31
456,70	2227,79
456,81	2262,73
456,92	2285,33
457,04	2288,56
457,15	2328,19
457,26	2293,05
457,37	2320,99
457,49	2338,43
457,60	2338,79
457,71	2360,67
457,82	2470,97
457,93	2409,07
458,05	2441,10
458,16	2425,53
458,27	2445,16
458,38	2455,38
458,49	2507,67
458,61	2495,22
458,72	2517,14
458,83	2519,92
458,94	2547,47
459,05	2566,63
459,17	2616,46
459,28	2591,33
459,39	2601,02
459,50	2625,43
459,61	2682,56
459,72	2672,50
459,84	2685,52
459,95	2697,86
460,06	2777,38
460,17	2734,35
460,28	2748,46
460,39	2787,64
460,51	2800,54
460,62	2827,80
460,73	2858,64
460,84	2847,86
460,95	2884,25
461,06	2897,63
461,18	2942,46
461,29	2957,83
461,40	2944,83
461,51	2980,00
461,62	3014,96
461,73	3044,27
461,84	3051,18
461,96	3054,64
462,07	3107,99
462,18	3082,10
462,29	3153,96
462,40	3152,76
462,51	3181,12
462,62	3200,40
462,73	3218,14
462,85	3222,75
462,96	3257,68
463,07	3296,69
463,18	3334,11
463,29	3309,80
463,40	3371,13
463,51	3384,37
463,62	3384,08
463,73	3421,48
463,85	3449,43
463,96	3482,24
464,07	3498,20
464,18	3542,20
464,29	3527,87
464,40	3579,35
464,51	3611,19
464,62	3615,19
464,73	3622,10
464,84	3677,31
464,95	3685,92
465,06	3731,66
465,18	3732,86
465,29	3779,21
465,40	3787,05
465,51	3842,44
465,62	3864,02
465,73	3850,12
465,84	3901,37
465,95	3895,97
466,06	3958,21
466,17	3993,37
466,28	4013,05
466,39	4034,86
466,50	4045,12
466,61	4102,34
466,72	4149,98
466,83	4137,66
466,95	4205,41
467,06	4208,62
467,17	4205,86
467,28	4303,58
467,39	4302,20
467,50	4353,09
467,61	4373,18
467,72	4362,38
467,83	4451,89
467,94	4466,17
468,05	4480,14
468,16	4526,62
468,27	4584,27
468,38	4582,35
468,49	4618,06
468,60	4664,50
468,71	4680,92
468,82	4760,29
468,93	4763,70
469,04	4822,86
469,15	4847,97
469,26	4876,92
469,37	4879,61
469,48	4966,41
469,59	5038,38
469,70	5037,57
469,81	5043,15
469,92	5092,37
470,03	5176,19
470,14	5236,28
470,25	5208,07
470,36	5238,15
470,47	5238,49
470,58	5330,60
470,69	5308,32
470,80	5453,76
470,91	5463,19
471,02	5456,29
471,13	5523,50
471,24	5586,01
471,35	5619,66
471,46	5729,33
471,56	5700,72
471,67	5781,93
471,78	5795,34
471,89	5851,47
472,00	5883,29
472,11	5929,82
472,22	5979,69
472,33	6003,17
472,44	6073,95
472,55	6149,04
472,66	6099,28
472,77	6162,22
472,88	6225,58
472,99	6223,21
473,10	6268,66
473,21	6381,72
473,32	6434,19
473,42	6421,78
473,53	6451,75
473,64	6527,70
473,75	6637,30
473,86	6646,73
473,97	6768,35
474,08	6778,43
474,19	6771,04
474,30	6822,81
474,41	6801,25
474,52	6908,78
474,62	6877,21
474,73	6955,76
474,84	7056,41
474,95	7094,13
475,06	7022,72
475,17	7190,82
475,28	7197,11
475,39	7307,97
475,50	7380,04
475,60	7342,59
475,71	7499,77
475,82	7507,18
475,93	7535,13
476,04	7529,08
476,15	7656,24
476,26	7750,81
476,37	7656,71
476,47	7785,50
476,58	7738,43
476,69	7929,22
476,80	7957,15
476,91	7996,27
477,02	8084,83
477,13	8187,36
477,23	8292,35
477,34	8242,82
477,45	8251,02
477,56	8339,36
477,67	8408,24
477,78	8479,74
477,89	8620,05
477,99	8575,53
478,10	8678,76
478,21	8794,85
478,32	8924,34
478,43	8925,56
478,54	8976,81
478,64	8961,69
478,75	9210,14
478,86	9179,54
478,97	9188,87
479,08	9186,61
479,18	9332,73
479,29	9369,28
479,40	9358,86
479,51	9382,74
479,62	9406,13
479,72	9431,26
479,83	9510,02
479,94	9696,88
480,05	9825,40
480,16	9831,95
480,26	9939,48
480,37	10031,88
480,48	10073,55
480,59	10125,41
480,70	10273,75
480,80	10161,50
480,91	10323,17
481,02	10321,36
481,13	10452,00
481,24	10568,34
481,34	10516,25
481,45	10602,60
481,56	10664,00
481,67	10722,62
481,77	10878,55
481,88	10919,18
481,99	10950,21
482,10	11242,22
482,20	11101,32
482,31	11164,23
482,42	11237,16
482,53	11296,55
482,63	11483,55
482,74	11579,18
482,85	11584,86
482,96	11682,84
483,06	11620,15
483,17	11808,08
483,28	11843,94
483,39	11916,87
483,49	12045,97
483,60	12086,02
483,71	12045,14
483,81	12167,35
483,92	12291,66
484,03	12498,12
484,14	12521,15
484,24	12545,87
484,35	12691,63
484,46	12795,35
484,57	12666,16
484,67	12947,62
484,78	12987,53
484,89	13052,52
484,99	13144,16
485,10	13209,33
485,21	13304,86
485,31	13366,93
485,42	13434,61
485,53	13425,85
485,63	13575,90
485,74	13727,33
485,85	13866,54
485,96	13857,09
486,06	13772,57
486,17	13915,10
486,28	14105,33
486,38	14151,61
486,49	14326,55
486,60	14201,31
486,70	14403,90
486,81	14348,51
486,92	14599,74
487,02	14613,84
487,13	14509,66
487,24	14748,66
487,34	14849,09
487,45	14975,12
487,56	14955,46
487,66	15129,94
487,77	15271,88
487,87	15185,48
487,98	15382,74
488,09	15493,23
488,19	15452,48
488,30	15462,00
488,41	15570,33
488,51	15701,58
488,62	15892,97
488,73	15905,69
488,83	15966,53
488,94	16221,37
489,04	16297,21
489,15	16296,26
489,26	16529,74
489,36	16648,47
489,47	16566,35
489,58	16685,06
489,68	16813,96
489,79	16667,57
489,89	16961,37
490,00	17132,01
490,11	16949,37
490,21	17200,82
490,32	17274,85
490,42	17373,31
490,53	17405,88
490,64	17416,25
490,74	17463,25
490,85	17642,68
490,95	17804,76
491,06	17881,48
491,16	17951,17
491,27	17951,40
491,38	18099,33
491,48	18059,85
491,59	18307,64
491,69	18140,91
491,80	18433,29
491,90	18568,11
492,01	18529,80
492,12	18633,44
492,22	18738,86
492,33	18765,07
492,43	18976,30
492,54	18868,82
492,64	19041,25
492,75	19195,48
492,86	19135,98
492,96	19310,69
493,07	19386,80
493,17	19536,87
493,28	19741,36
493,38	19739,06
493,49	19799,44
493,59	19893,74
493,70	19943,84
493,80	20013,11
493,91	19897,36
494,01	20193,44
494,12	20062,06
494,22	20460,10
494,33	20397,23
494,43	20508,19
494,54	20771,66
494,64	20709,36
494,75	20734,74
494,86	20982,15
494,96	20851,10
495,07	20880,95
495,17	21171,81
495,28	21147,75
495,38	21111,95
495,49	21317,07
495,59	21378,74
495,69	21559,26
495,80	21537,00
495,90	21612,55
496,01	21962,46
496,11	21985,96
496,22	21819,03
496,32	21944,97
496,43	21977,28
496,53	22168,19
496,64	22394,94
496,74	22460,93
496,85	22391,67
496,95	22544,66
497,06	22561,86
497,16	22556,23
497,27	22908,38
497,37	23024,49
497,48	22945,48
497,58	23154,13
497,68	22951,77
497,79	23100,15
497,89	23326,63
498,00	23532,27
498,10	23534,87
498,21	23699,99
498,31	23555,61
498,42	23799,09
498,52	23906,41
498,62	23772,31
498,73	24134,13
498,83	24327,23
498,94	24086,15
499,04	24273,90
499,15	24420,13
499,25	24336,66
499,35	24767,18
499,46	24530,93
499,56	24777,68
499,67	24713,93
499,77	24632,81
499,87	25099,71
499,98	24882,13
500,08	24978,11
500,19	25088,50
500,29	25199,16
500,39	25247,43
500,50	25544,38
500,60	25512,31
500,71	25590,05
500,81	25816,28
500,91	25756,78
501,02	25960,34
501,12	25851,80
501,22	26166,62
501,33	26169,29
501,43	26259,70
501,54	26456,89
501,64	26437,05
501,74	26279,38
501,85	26530,36
501,95	26276,70
502,05	26919,50
502,16	26756,95
502,26	27158,30
502,37	26925,06
502,47	26953,20
502,57	27154,05
502,68	27156,74
502,78	27176,33
502,88	27280,87
502,99	27483,67
503,09	27766,37
503,19	27506,06
503,30	27843,86
503,40	27837,06
503,50	27973,13
503,61	28037,62
503,71	28137,93
503,81	28094,00
503,92	28232,78
504,02	28460,71
504,12	28478,08
504,23	28372,08
504,33	28510,02
504,43	28674,17
504,54	28854,23
504,64	28566,87
504,74	29021,37
504,84	29033,55
504,95	29253,75
505,05	29539,46
505,15	29391,89
505,26	29688,22
505,36	29476,07
505,46	29489,38
505,56	29883,99
505,67	29726,16
505,77	29915,06
505,87	29904,74
505,98	30259,46
506,08	30100,23
506,18	30377,40
506,28	30079,92
506,39	30463,30
506,49	30646,77
506,59	30590,25
506,70	30512,11
506,80	30878,74
506,90	30976,66
507,00	31007,17
507,11	30927,33
507,21	31190,71
507,31	31401,37
507,41	31303,91
507,52	31531,70
507,62	31528,40
507,72	31732,71
507,82	31667,45
507,93	31804,82
508,03	31969,68
508,13	31953,79
508,23	32100,99
508,34	31967,14
508,44	32387,04
508,54	32322,80
508,64	32518,23
508,74	32501,32
508,85	32646,34
508,95	32711,08
509,05	32617,12
509,15	32783,42
509,26	32928,54
509,36	33038,17
509,46	33246,86
509,56	33292,94
509,66	33364,83
509,77	33375,92
509,87	33518,29
509,97	33633,59
510,07	33619,60
510,17	33887,21
510,28	33986,82
510,38	33859,28
510,48	33993,87
510,58	34092,63
510,68	34235,56
510,78	34521,50
510,89	34445,77
510,99	34400,05
511,09	34582,08
511,19	34758,01
511,29	34743,25
511,39	34854,71
511,50	34858,64
511,60	35133,86
511,70	34946,89
511,80	35144,03
511,90	35471,71
512,00	35323,85
512,11	35597,22
512,21	35720,15
512,31	35702,39
512,41	35633,62
512,51	35857,91
512,61	35891,95
512,71	35893,89
512,82	35858,73
512,92	35861,71
513,02	36210,13
513,12	35980,91
513,22	36416,25
513,32	36498,62
513,42	36527,34
513,53	36846,07
513,63	36983,76
513,73	37026,60
513,83	37291,59
513,93	37305,96
514,03	37293,54
514,13	37208,14
514,23	37371,05
514,33	37527,83
514,44	37504,67
514,54	37680,98
514,64	37763,72
514,74	37754,97
514,84	37854,99
514,94	38053,24
515,04	37973,61
515,14	38059,93
515,24	37978,99
515,34	38257,13
515,44	38440,87
515,55	38194,37
515,65	38748,66
515,75	38497,57
515,85	38622,00
515,95	39015,70
516,05	38963,68
516,15	38915,50
516,25	39020,22
516,35	39191,68
516,45	39157,15
516,55	39076,81
516,65	39285,28
516,75	39520,80
516,85	39481,79
516,95	39493,12
517,05	39743,17
517,16	39835,10
517,26	39869,06
517,36	40066,10
517,46	40170,77
517,56	40222,63
517,66	40269,86
517,76	40184,92
517,86	40243,79
517,96	40446,29
518,06	40330,50
518,16	40587,71
518,26	40853,58
518,36	40964,99
518,46	40847,11
518,56	40717,40
518,66	41177,23
518,76	41238,74
518,86	41140,69
518,96	41249,43
519,06	41363,98
519,16	41185,32
519,26	41598,21
519,36	41423,46
519,46	41700,29
519,56	41751,72
519,66	41691,88
519,76	41721,55
519,86	42103,26
519,96	42128,30
520,06	42235,62
520,16	42064,48
520,26	42419,93
520,36	42632,85
520,46	42170,06
520,56	42219,17
520,66	42689,94
520,76	42725,80
520,86	42528,31
520,96	42787,13
521,06	42875,33
521,16	42925,55
521,26	43181,81
521,35	43169,86
521,45	43206,15
521,55	43084,39
521,65	43545,37
521,75	43448,33
521,85	43284,18
521,95	43338,10
522,05	43423,52
522,15	43602,07
522,25	43944,16
522,35	43788,66
522,45	42274,24
522,55	43884,73
522,65	44055,21
522,75	43913,29
522,85	44010,42
522,94	43881,34
523,04	44019,01
523,14	44134,96
523,24	44145,33
523,34	44316,42
523,44	44421,17
523,54	44258,14
523,64	44690,72
523,74	44715,69
523,84	44484,62
523,94	44820,52
524,03	44695,42
524,13	44980,50
524,23	45294,95
524,33	45284,22
524,43	45373,55
524,53	45373,87
524,63	45279,88
524,73	45441,16
524,83	45620,19
524,92	45570,04
525,02	45490,99
525,12	45561,52
525,22	45531,06
525,32	45969,17
525,42	46241,23
525,52	45785,11
525,61	46192,04
525,71	46280,80
525,81	46265,82
525,91	46735,91
526,01	46648,97
526,11	46458,36
526,21	46328,67
526,30	46292,19
526,40	46582,60
526,50	46666,87
526,60	46560,43
526,70	46191,86
526,80	46970,41
526,89	47039,88
526,99	46889,78
527,09	47003,99
527,19	46940,26
527,29	47137,10
527,39	47004,51
527,48	47083,09
527,58	47562,24
527,68	47607,37
527,78	47488,75
527,88	47271,04
527,97	47729,01
528,07	47528,45
528,17	47652,04
528,27	47842,50
528,37	47313,27
528,46	47937,64
528,56	47855,00
528,66	48167,13
528,76	48291,30
528,86	48109,95
528,95	48043,92
529,05	48300,64
529,15	48471,98
529,25	48077,36
529,35	48248,07
529,44	48473,08
529,54	48451,25
529,64	48585,51
529,74	48661,12
529,83	48826,93
529,93	48731,38
530,03	48986,67
530,13	48819,67
530,22	48574,50
530,32	48982,61
530,42	48956,96
530,52	49001,16
530,61	49306,49
530,71	49228,34
530,81	49348,77
530,91	49357,67
531,00	49660,26
531,10	49518,12
531,20	49539,99
531,30	49053,41
531,39	49479,27
531,49	49615,92
531,59	49584,92
531,69	49617,14
531,78	49364,90
531,88	49761,93
531,98	49732,51
532,07	49775,04
532,17	49879,46
532,27	49616,19
532,37	50350,98
532,46	50050,96
532,56	50395,00
532,66	50385,39
532,75	50602,86
532,85	50571,38
532,95	50492,33
533,04	50438,05
533,14	50628,51
533,24	50532,60
533,34	50446,21
533,43	50631,08
533,53	50241,17
533,63	50886,67
533,72	50759,69
533,82	50545,50
533,92	51050,01
534,01	50747,42
534,11	50946,08
534,21	51156,18
534,30	51082,85
534,40	51042,17
534,50	50702,99
534,59	50916,16
534,69	51316,62
534,79	51529,03
534,88	50987,03
534,98	51348,53
535,08	50976,97
535,17	51208,54
535,27	51765,58
535,36	51947,00
535,46	51624,07
535,56	51798,62
535,65	51529,84
535,75	51953,51
535,85	51684,37
535,94	51812,25
536,04	51870,21
536,14	52042,50
536,23	52150,73
536,33	51883,46
536,42	51908,47
536,52	52067,18
536,62	52275,99
536,71	52176,29
536,81	52037,37
536,90	52486,11
537,00	52286,54
537,10	52281,03
537,19	52336,57
537,29	52577,09
537,38	52495,19
537,48	52532,52
537,58	52415,28
537,67	52572,41
537,77	52770,03
537,86	52821,08
537,96	52702,85
538,06	52560,43
538,15	52856,27
538,25	52780,74
538,34	53260,37
538,44	52829,65
538,53	52905,12
538,63	53183,20
538,73	53258,49
538,82	53000,04
538,92	52975,77
539,01	53378,31
539,11	53237,68
539,20	53254,47
539,30	53603,16
539,39	53162,41
539,49	53666,35
539,59	53324,68
539,68	53732,38
539,78	53696,61
539,87	53942,75
539,97	53862,23
540,06	53721,33
540,16	53928,28
540,25	53905,03
540,35	53848,08
540,44	53899,68
540,54	53902,82
540,63	53798,55
540,73	54421,74
540,82	53718,44
540,92	54119,49
541,01	53960,78
541,11	54387,57
541,20	54345,47
541,30	54211,67
541,39	54249,95
541,49	54216,68
541,58	54190,29
541,68	54703,65
541,77	54494,08
541,87	54545,31
541,96	54669,82
542,06	54662,73
542,15	54659,66
542,25	54651,72
542,34	54679,68
542,44	54599,48
542,53	54931,11
542,63	54735,54
542,72	54938,36
542,82	54925,30
542,91	54978,43
543,01	55195,10
543,10	55140,89
543,20	54980,73
543,29	55112,84
543,38	55217,79
543,48	55175,21
543,57	55148,30
543,67	55214,76
543,76	55203,37
543,86	55492,60
543,95	55307,75
544,05	55233,11
544,14	55222,24
544,23	55775,56
544,33	55386,03
544,42	55228,93
544,52	55693,03
544,61	55669,53
544,71	55703,11
544,80	55754,23
544,89	55730,56
544,99	55872,62
545,08	55946,31
545,18	55990,20
545,27	55804,69
545,36	56170,06
545,46	55938,76
545,55	55930,15
545,65	56024,25
545,74	55971,24
545,84	56213,74
545,93	56027,21
546,02	56154,96
546,12	56295,66
546,21	56283,07
546,30	56438,18
546,40	56218,12
546,49	56240,79
546,59	56418,93
546,68	56503,06
546,77	56502,97
546,87	56526,75
546,96	56598,52
547,05	56473,94
547,15	56427,72
547,24	56613,55
547,34	56526,93
547,43	56719,71
547,52	56818,88
547,62	56793,50
547,71	56722,02
547,80	56744,39
547,90	56917,20
547,99	56976,63
548,08	56766,24
548,18	56845,50
548,27	56896,97
548,36	57043,86
548,46	56930,58
548,55	57105,29
548,64	57171,00
548,74	57184,09
548,83	57229,28
548,92	57250,39
549,02	57199,43
549,11	57334,03
549,20	57307,68
549,30	57198,62
549,39	57406,11
549,48	57347,20
549,58	57373,64
549,67	57572,80
549,76	57420,40
549,85	57688,71
549,95	57482,36
550,04	57652,46
550,13	57659,10
550,23	57590,29
550,32	57619,62
550,41	57842,06
550,50	57793,67
550,60	57761,65
550,69	57745,56
550,78	57811,35
550,88	57888,95
550,97	57740,43
551,06	58021,83
551,15	57659,51
551,25	57990,12
551,34	57833,36
551,43	57914,19
551,52	57980,92
551,62	58109,49
551,71	58227,54
551,80	58005,74
551,89	58226,97
551,99	58213,91
552,08	58122,30
552,17	58358,61
552,26	58195,68
552,36	58130,07
552,45	58349,80
552,54	58317,77
552,63	58354,61
552,73	58406,13
552,82	58492,68
552,91	58321,57
553,00	58524,39
553,10	58596,27
553,19	58593,09
553,28	58625,49
553,37	58538,04
553,46	58595,21
553,56	58593,72
553,65	58660,82
553,74	58766,42
553,83	58679,50
553,92	58983,45
554,02	58891,36
554,11	58752,29
554,20	58714,85
554,29	58922,89
554,38	58789,42
554,48	58930,55
554,57	58886,17
554,66	58996,83
554,75	58935,57
554,84	59032,81
554,94	59059,47
555,03	59089,21
555,12	59130,20
555,21	59079,00
555,30	59244,14
555,39	59167,20
555,49	59282,81
555,58	59079,83
555,67	59133,77
555,76	59323,04
555,85	59287,01
555,94	59338,45
556,03	59236,66
556,13	59465,43
556,22	59385,61
556,31	59431,78
556,40	59371,73
556,49	59519,64
556,58	59427,17
556,67	59520,43
556,77	59566,12
556,86	59639,30
556,95	59532,23
557,04	59577,38
557,13	59568,70
557,22	59723,07
557,31	59646,73
557,40	59868,67
557,50	59699,34
557,59	59664,81
557,68	60001,28
557,77	59776,63
557,86	59879,50
557,95	59779,20
558,04	59815,47
558,13	59874,25
558,22	59642,98
558,31	59951,65
558,41	59896,29
558,50	59925,30
558,59	59982,72
558,68	59986,97
558,77	60060,91
558,86	59996,15
558,95	60086,45
559,04	60152,93
559,13	59988,74
559,22	60240,86
559,31	60211,42
559,40	60172,87
559,49	60401,83
559,59	60029,80
559,68	60204,16
559,77	60359,75
559,86	60191,42
559,95	60155,85
560,04	60338,71
560,13	60399,14
560,22	60330,74
560,31	60314,58
560,40	60357,74
560,49	60504,41
560,58	60332,88
560,67	60513,54
560,76	60480,88
560,85	60557,31
560,94	60465,69
561,03	60506,03
561,12	60572,74
561,21	60599,72
561,30	60450,98
561,39	60587,27
561,48	60582,87
561,57	60484,84
561,66	60580,90
561,75	60743,11
561,84	60587,09
561,93	60710,34
562,02	60728,74
562,11	60735,52
562,20	60705,80
562,29	60750,43
562,38	60706,19
562,47	60796,58
562,56	60671,77
562,65	60858,90
562,74	60748,47
562,83	60989,88
562,92	60966,22
563,01	60945,12
563,10	61068,73
563,19	60906,65
563,28	60890,43
563,37	60992,46
563,46	61043,62
563,55	60833,50
563,64	60972,66
563,73	61056,26
563,82	60840,06
563,91	61060,80
564,00	60964,98
564,09	61022,74
564,18	61070,74
564,27	61227,55
564,35	61161,09
564,44	61182,06
564,53	61309,08
564,62	61133,90
564,71	61245,83
564,80	61069,25
564,89	61108,84
564,98	61294,96
565,07	61155,39
565,16	61209,13
565,25	61142,94
565,34	61231,62
565,43	61243,30
565,51	61232,23
565,60	61341,94
565,69	61301,85
565,78	61518,53
565,87	61378,66
565,96	61426,05
566,05	61491,34
566,14	61388,95
566,23	61387,41
566,32	61462,14
566,40	61406,60
566,49	61533,80
566,58	61486,55
566,67	61546,91
566,76	61557,10
566,85	61532,42
566,94	61443,97
567,03	61482,05
567,11	61531,11
567,20	61639,54
567,29	61642,23
567,38	61485,96
567,47	61711,27
567,56	61625,37
567,65	61538,03
567,73	61391,82
567,82	61505,94
567,91	61544,06
568,00	61545,82
568,09	61646,82
568,18	61715,11
568,27	61699,13
568,35	61591,09
568,44	61854,20
568,53	61514,34
568,62	61754,11
568,71	61683,81
568,80	61803,47
568,88	61701,73
568,97	61873,97
569,06	61725,66
569,15	61816,08
569,24	61842,63
569,32	61802,59
569,41	61607,90
569,50	61669,03
569,59	61793,34
569,68	61779,49
569,76	62006,67
569,85	61807,58
569,94	61978,58
570,03	61811,33
570,12	61920,05
570,20	62112,59
570,29	61945,84
570,38	61717,82
570,47	62076,50
570,56	62036,55
570,64	62077,22
570,73	61855,13
570,82	61993,18
570,91	62036,34
570,99	62097,90
571,08	61890,29
571,17	61920,37
571,26	62037,70
571,34	62040,61
571,43	62057,16
571,52	62232,04
571,61	62021,63
571,69	62158,60
571,78	62088,18
571,87	62232,00
571,96	62124,88
572,04	62271,79
572,13	62079,41
572,22	62337,92
572,31	62174,58
572,39	62357,98
572,48	62284,56
572,57	62191,07
572,66	62198,82
572,74	62342,73
572,83	62128,39
572,92	62300,61
573,00	62217,29
573,09	62177,76
573,18	62207,73
573,27	62286,08
573,35	62443,83
573,44	62321,94
573,53	62258,64
573,61	62194,39
573,70	62435,61
573,79	62442,64
573,87	62445,42
573,96	62440,29
574,05	62402,75
574,14	62439,79
574,22	62560,80
574,31	62260,97
574,40	62590,90
574,48	62536,26
574,57	62478,09
574,66	62492,35
574,74	62255,03
574,83	62369,98
574,92	62503,45
575,00	62329,60
575,09	62299,30
575,18	62622,18
575,26	62619,51
575,35	62374,12
575,43	62314,05
575,52	62642,68
575,61	62471,99
575,69	62566,68
575,78	62294,19
575,87	62606,25
575,95	62639,60
576,04	62662,52
576,13	62685,00
576,21	62499,70
576,30	62615,51
576,38	62588,44
576,47	62600,67
576,56	62627,38
576,64	62589,66
576,73	62470,43
576,82	62779,28
576,90	62675,78
576,99	62877,22
577,07	62678,59
577,16	62519,58
577,25	62699,74
577,33	62572,44
577,42	62523,52
577,50	62609,98
577,59	62766,97
577,68	62508,33
577,76	62802,38
577,85	62598,50
577,93	62705,82
578,02	62822,54
578,10	62673,03
578,19	62715,67
578,28	62754,04
578,36	63001,83
578,45	62783,49
578,53	62662,50
578,62	62924,07
578,70	62953,38
578,79	62914,17
578,88	62938,31
578,96	63049,17
579,05	62840,01
579,13	62774,92
579,22	62713,68
579,30	62940,57
579,39	62764,10
579,47	62914,81
579,56	62963,53
579,64	62771,46
579,73	62775,35
579,82	62893,65
579,90	63034,15
579,99	63137,29
580,07	62855,42
580,16	62999,16
580,24	63009,99
580,33	62918,10
580,41	62868,84
580,50	62951,91
580,58	62758,79
580,67	63055,37
580,75	62933,70
580,84	62866,67
580,92	62838,94
581,01	63187,86
581,09	62840,71
581,18	63184,99
581,26	62969,18
581,35	63038,19
581,43	62942,06
581,52	63205,17
581,60	63033,04
581,69	63068,43
581,77	63179,77
581,86	63052,59
581,94	63190,53
582,02	63170,08
582,11	63207,57
582,19	63154,17
582,28	63193,58
582,36	63118,03
582,45	63189,42
582,53	63305,98
582,62	62984,20
582,70	63167,59
582,79	63237,89
582,87	63122,89
582,96	63206,23
583,04	63339,16
583,12	63128,20
583,21	63189,67
583,29	63147,32
583,38	63389,62
583,46	63233,85
583,55	63174,64
583,63	63205,78
583,71	63361,35
583,80	63344,04
583,88	63150,03
583,97	63495,78
584,05	63205,08
584,13	63362,39
584,22	63419,40
584,30	63444,03
584,39	63345,12
584,47	63296,65
584,55	63504,48
584,64	63462,72
584,72	63356,33
584,81	63312,92
584,89	63340,69
584,97	63425,19
585,06	63448,64
585,14	63349,96
585,23	63333,44
585,31	63567,94
585,39	63421,64
585,48	63486,18
585,56	63577,91
585,64	63442,63
585,73	63607,28
585,81	63412,80
585,90	63498,84
585,98	63487,40
586,06	63690,76
586,15	63573,32
586,23	63474,88
586,31	63617,84
586,40	63479,92
586,48	63715,73
586,56	63433,10
586,65	63520,24
586,73	63722,40
586,81	63493,55
586,90	63587,51
586,98	63702,90
587,06	63635,96
587,15	63599,94
587,23	63741,90
587,31	63768,12
587,40	63617,66
587,48	63643,96
587,56	63651,78
587,65	63626,06
587,73	63850,01
587,81	63716,09
587,90	63642,72
587,98	63595,35
588,06	63741,34
588,14	63705,13
588,23	63630,58
588,31	63810,58
588,39	63707,76
588,48	63750,94
588,56	63817,72
588,64	63570,97
588,72	63857,24
588,81	63798,17
588,89	63916,56
588,97	63738,63
589,06	63741,63
589,14	63714,11
589,22	63849,29
589,30	63850,58
589,39	63788,36
589,47	63816,39
589,55	63949,63
589,63	63851,12
589,72	63866,37
589,80	63829,76
589,88	63872,61
589,96	64046,87
590,05	63971,59
590,13	63912,61
590,21	63874,31
590,29	63883,10
590,38	63930,71
590,46	63733,13
590,54	64004,47
590,62	64008,34
590,71	63997,49
590,79	63676,71
590,87	64124,76
590,95	64016,72
591,03	63972,79
591,12	64057,28
591,20	64057,26
591,28	64125,62
591,36	64036,22
591,44	63945,47
591,53	64053,76
591,61	64012,43
591,69	64013,42
591,77	64112,56
591,85	64020,61
591,94	64124,22
592,02	64003,50
592,10	64118,86
592,18	64211,99
592,26	64169,05
592,34	64182,79
592,43	64135,02
592,51	64077,26
592,59	64016,45
592,67	64219,13
592,75	64205,21
592,84	64015,14
592,92	63970,48
593,00	64050,53
593,08	64180,78
593,16	64197,17
593,24	64183,74
593,32	64186,73
593,41	64236,22
593,49	64027,21
593,57	63941,20
593,65	64102,66
593,73	64097,24
593,81	64046,93
593,89	63985,08
593,98	64211,22
594,06	64237,35
594,14	64197,87
594,22	64281,46
594,30	64164,94
594,38	64301,10
594,46	64435,53
594,54	64410,70
594,62	64248,33
594,71	64446,81
594,79	64512,57
594,87	64184,49
594,95	64259,13
595,03	64328,35
595,11	64188,13
595,19	64357,00
595,27	64401,09
595,35	64301,66
595,43	64405,52
595,52	64338,32
595,60	64322,25
595,68	64307,49
595,76	64306,11
595,84	64249,64
595,92	64289,21
596,00	64473,18
596,08	64419,58
596,16	64433,95
596,24	64465,25
596,32	64289,14
596,40	64344,01
596,48	64406,99
596,56	64390,90
596,64	64427,38
596,73	64352,37
596,81	64453,25
596,89	64386,25
596,97	64423,31
597,05	64457,68
597,13	64468,10
597,21	64424,01
597,29	64411,76
597,37	64501,70
597,45	64367,69
597,53	64502,61
597,61	64439,19
597,69	64540,66
597,77	64544,75
597,85	64402,92
597,93	64485,45
598,01	64483,19
598,09	64453,86
598,17	64567,46
598,25	64312,98
598,33	64521,84
598,41	64581,34
598,49	64394,20
598,57	64436,14
598,65	64581,47
598,73	64507,71
598,81	64467,83
598,89	64552,86
598,97	64491,80
599,05	64621,56
599,13	64602,26
599,21	64620,86
599,29	64506,90
599,37	64576,41
599,45	64570,42
599,53	64477,36
599,61	64523,21
599,69	64601,00
599,77	64395,11
599,85	64498,38
599,93	64618,62
600,00	64633,00
600,08	64515,85
600,16	64575,51
600,24	64676,09
600,32	64603,51
600,40	64553,25
600,48	64725,20
600,56	64460,10
600,64	64532,01
600,72	64633,43
600,80	64606,78
600,88	64583,03
600,96	64680,82
601,04	64489,07
601,12	64506,85
601,19	64450,52
601,27	64583,03
601,35	64664,41
601,43	64649,77
601,51	64607,89
601,59	64602,56
601,67	64668,66
601,75	64463,89
601,83	64594,02
601,91	64513,95
601,98	64583,69
602,06	64614,92
602,14	64730,53
602,22	64610,24
602,30	64699,23
602,38	64653,47
602,46	64681,47
602,54	64567,28
602,61	64576,16
602,69	64624,50
602,77	64512,19
602,85	64647,35
602,93	64579,85
603,01	64467,62
603,09	64689,95
603,17	64537,61
603,24	64795,34
603,32	64582,06
603,40	64551,87
603,48	64669,20
603,56	64496,80
603,64	64645,77
603,71	64511,33
603,79	64648,07
603,87	64651,30
603,95	64602,06
604,03	64480,53
604,11	64621,92
604,18	64494,02
604,26	64555,17
604,34	64686,19
604,42	64533,72
604,50	64651,10
604,57	64660,66
604,65	64524,23
604,73	64594,04
604,81	64682,06
604,89	64535,98
604,96	64578,60
605,04	64517,18
605,12	64537,47
605,20	64510,97
605,28	64537,66
605,35	64633,52
605,43	64614,87
605,51	64616,07
605,59	64452,46
605,67	64547,06
605,74	64508,59
605,82	64609,02
605,90	64551,24
605,98	64519,15
606,05	64512,84
606,13	64389,77
606,21	64572,50
606,29	64576,07
606,36	64549,99
606,44	64521,45
606,52	64472,84
606,60	64529,93
606,67	64496,55
606,75	64377,37
606,83	64487,22
606,91	64483,35
606,98	64507,37
607,06	64393,50
607,14	64456,60
607,22	64421,95
607,29	64402,27
607,37	64471,42
607,45	64360,01
607,52	64440,12
607,60	64355,99
607,68	64523,03
607,76	64424,60
607,83	64371,90
607,91	64438,27
607,99	64433,18
608,06	64542,69
608,14	64357,48
608,22	64411,04
608,30	64371,99
608,37	64423,78
608,45	64360,17
608,53	64353,12
608,60	64287,49
608,68	64263,04
608,76	64380,55
608,83	64460,28
608,91	64377,16
608,99	64317,59
609,06	64313,91
609,14	64323,56
609,22	64390,65
609,29	64421,97
609,37	64323,94
609,45	64254,52
609,52	64319,90
609,60	64169,78
609,68	64210,59
609,75	64316,40
609,83	64095,52
609,91	64202,05
609,98	64169,60
610,06	64178,03
610,13	64121,19
610,21	64219,90
610,29	64150,12
610,36	64042,75
610,44	64129,08
610,52	64098,03
610,59	64083,81
610,67	64079,32
610,74	64046,64
610,82	64019,82
610,90	63993,62
610,97	64021,06
611,05	63958,48
611,13	63946,98
611,20	63899,21
611,28	63869,90
611,35	64003,36
611,43	63901,90
611,51	63846,28
611,58	63696,64
611,66	63863,55
611,73	63668,57
611,81	63752,52
611,88	63515,96
611,96	63773,52
612,04	63579,38
612,11	63588,39
612,19	63616,10
612,26	63330,79
612,34	63403,02
612,41	63614,65
612,49	63401,28
612,57	63231,20
612,64	63379,67
612,72	63182,44
612,79	63258,57
612,87	63206,53
612,94	63061,87
613,02	63205,85
613,09	63183,34
613,17	62930,92
613,24	63029,60
613,32	62869,88
613,40	62849,16
613,47	62915,39
613,55	62562,68
613,62	62820,89
613,70	62639,76
613,77	62595,88
613,85	62573,59
613,92	62487,99
614,00	62363,68
614,07	62336,20
614,15	62243,32
614,22	62284,00
614,30	62108,14
614,37	62170,82
614,45	62081,81
614,52	61919,58
614,60	61882,34
614,67	61983,03
614,75	61689,21
614,82	61691,20
614,90	61607,18
614,97	61621,98
615,05	61433,62
615,12	61213,90
615,20	61322,40
615,27	61014,31
615,34	61295,03
615,42	61043,19
615,49	60993,64
615,57	60869,21
615,64	60738,79
615,72	60639,81
615,79	60592,79
615,87	60232,66
615,94	60486,98
616,02	60155,96
616,09	59935,36
616,16	59955,63
616,24	60053,68
616,31	59590,62
616,39	59635,25
616,46	59530,53
616,54	59440,00
616,61	59496,14
616,68	59210,81
616,76	59037,17
616,83	58825,10
616,91	58626,85
616,98	58641,95
617,06	58644,70
617,13	58299,90
617,20	58232,67
617,28	57835,03
617,35	57860,32
617,43	57729,29
617,50	57580,21
617,57	57397,23
>>>>>End Processed Spectral Data<<<<<
