SpectraSuite Datei
++++++++++++++++++++++++++++++++++++
Datum: Tue Apr 13 12:45:20 CEST 2021
Benutzer: Student
Dark-Spektrum vorhanden: Nein
Referenz-Spektrum vorhanden: Nein
Zahl der probierten Teilspektren: 1
Spektrometer: USB2+H04734
Integrationszeit (usec): 200000 (USB2+H04734)
Spektren Durchschnitt berechnet: 100 (USB2+H04734)
Boxcar Glättung: 0 (USB2+H04734)
Dunkelstromkorrektur: Ja (USB2+H04734)
Puls/Lampe aktiviert: Nein (USB2+H04734)
Correct for Detector Non-linearity: Nein (USB2+H04734)
Streulichtkorrektur: Nein (USB2+H04734)
Anzahl Pixel in verarbeitetem Spektrum: 2048
>>>>>Begin Processed Spectral Data<<<<<
418,45	555,38
418,57	555,38
418,69	555,38
418,80	482,88
418,92	458,70
419,04	507,83
419,16	459,83
419,28	460,51
419,40	444,17
419,52	445,53
419,64	453,93
419,75	445,91
419,87	452,55
419,99	446,41
420,11	448,76
420,23	463,72
420,35	476,85
420,47	476,42
420,58	483,27
420,70	497,59
420,82	504,37
420,94	520,24
421,06	533,66
421,18	538,20
421,29	1018,69
421,41	2314,52
421,53	2367,89
421,65	2392,59
421,77	2425,02
421,89	2416,32
422,00	2450,81
422,12	2447,10
422,24	2451,15
422,36	2501,11
422,48	2519,66
422,59	2497,00
422,71	2531,98
422,83	2531,66
422,95	2508,12
423,07	2507,51
423,18	2562,83
423,30	2572,72
423,42	2566,62
423,54	2564,75
423,66	2573,27
423,77	2567,44
423,89	2590,06
424,01	2609,81
424,13	2583,30
424,25	2608,23
424,36	2615,35
424,48	2633,42
424,60	2612,14
424,72	2646,21
424,84	2653,04
424,95	2664,34
425,07	2653,72
425,19	2699,89
425,31	2700,61
425,42	2694,78
425,54	2697,35
425,66	2709,42
425,78	2720,40
425,89	2731,57
426,01	2732,07
426,13	2735,34
426,25	2764,45
426,36	2769,62
426,48	2775,82
426,60	2753,08
426,72	2781,69
426,83	2801,40
426,95	2800,74
427,07	2833,80
427,19	2870,23
427,30	2860,06
427,42	2829,06
427,54	2862,05
427,66	2867,00
427,77	2904,69
427,89	2916,81
428,01	2920,35
428,12	2932,08
428,24	2933,03
428,36	2992,76
428,48	2969,19
428,59	2995,67
428,71	3025,53
428,83	3020,49
428,94	3020,98
429,06	3042,57
429,18	3079,60
429,30	3064,49
429,41	3101,05
429,53	3096,69
429,65	3136,55
429,76	3110,25
429,88	3113,03
430,00	3128,01
430,11	3144,12
430,23	3157,36
430,35	3215,04
430,47	3207,85
430,58	3191,42
430,70	3277,84
430,82	3237,43
430,93	3319,12
431,05	3238,31
431,17	3300,19
431,28	3332,03
431,40	3291,96
431,52	3315,80
431,63	3287,89
431,75	3364,77
431,87	3374,74
431,98	3372,36
432,10	3397,04
432,22	3386,33
432,33	3426,94
432,45	3390,17
432,56	3411,80
432,68	3468,20
432,80	3447,05
432,91	3503,23
433,03	3502,64
433,15	3509,69
433,26	3511,66
433,38	3543,07
433,50	3560,31
433,61	3574,28
433,73	3597,96
433,84	3589,49
433,96	3575,25
434,08	3604,25
434,19	3617,38
434,31	3623,82
434,43	3602,62
434,54	3641,06
434,66	3639,97
434,77	3649,44
434,89	3661,76
435,01	3716,15
435,12	3691,86
435,24	3728,51
435,35	3733,55
435,47	3785,60
435,59	3759,22
435,70	3761,06
435,82	3776,65
435,93	3809,73
436,05	3823,04
436,17	3797,51
436,28	3833,23
436,40	3821,98
436,51	3835,86
436,63	3897,87
436,74	3875,18
436,86	3898,86
436,98	3994,63
437,09	3946,41
437,21	3976,67
437,32	3951,94
437,44	4026,59
437,55	3948,06
437,67	4098,18
437,79	4043,83
437,90	4041,27
438,02	4010,47
438,13	4271,75
438,25	4057,25
438,36	4124,73
438,48	4103,22
438,59	4173,25
438,71	4126,29
438,83	4202,60
438,94	4176,91
439,06	4181,36
439,17	4201,43
439,29	4191,82
439,40	4253,25
439,52	4278,92
439,63	4277,61
439,75	4279,21
439,86	4283,12
439,98	4317,54
440,09	4334,53
440,21	4389,29
440,32	4407,25
440,44	4371,14
440,55	4379,43
440,67	4386,17
440,78	4449,83
440,90	4440,20
441,01	4422,87
441,13	4461,74
441,24	4540,99
441,36	4548,88
441,47	4513,71
441,59	4506,73
441,70	4574,62
441,82	4594,68
441,93	4652,44
442,05	4596,78
442,16	4624,67
442,28	4615,02
442,39	4674,97
442,51	4673,62
442,62	4702,30
442,74	4728,65
442,85	4766,14
442,97	4757,84
443,08	4780,73
443,20	4790,32
443,31	4817,95
443,43	4789,23
443,54	4828,51
443,66	4855,15
443,77	4849,32
443,88	4859,22
444,00	4853,37
444,11	4933,18
444,23	4989,09
444,34	4927,65
444,46	4950,85
444,57	4980,91
444,69	5009,70
444,80	5029,41
444,91	5051,21
445,03	5055,10
445,14	5102,13
445,26	5080,37
445,37	5034,65
445,49	5126,83
445,60	5178,42
445,71	5129,67
445,83	5175,57
445,94	5152,79
446,06	5217,88
446,17	5257,72
446,29	5254,30
446,40	5200,93
446,51	5258,01
446,63	5260,38
446,74	5270,21
446,86	5270,57
446,97	5351,50
447,08	5383,36
447,20	5347,45
447,31	5428,88
447,43	5381,53
447,54	5422,75
447,65	5391,91
447,77	5351,16
447,88	5464,72
448,00	5439,00
448,11	5443,07
448,22	5465,24
448,34	5555,13
448,45	5504,17
448,56	5524,24
448,68	5601,64
448,79	5617,98
448,90	5551,38
449,02	5641,50
449,13	5615,97
449,25	5642,77
449,36	5671,65
449,47	5646,88
449,59	5693,39
449,70	5743,40
449,81	5680,12
449,93	5755,26
450,04	5774,92
450,15	5778,86
450,27	5843,40
450,38	5827,33
450,49	5850,65
450,61	5906,02
450,72	5841,70
450,83	5883,08
450,95	5862,22
451,06	5915,10
451,17	5966,69
451,29	5994,06
451,40	5999,39
451,51	5982,85
451,63	5996,57
451,74	5925,63
451,85	5995,69
451,97	6067,91
452,08	6147,09
452,19	6079,64
452,31	6075,01
452,42	6093,38
452,53	6147,09
452,65	6157,24
452,76	6178,89
452,87	6081,81
452,98	6096,52
453,10	6123,34
453,21	6191,95
453,32	6147,03
453,44	6243,84
453,55	6274,01
453,66	6311,54
453,77	6297,12
453,89	6312,27
454,00	6372,15
454,11	6358,23
454,23	6373,24
454,34	6499,27
454,45	6390,59
454,56	6417,78
454,68	6423,72
454,79	6494,50
454,90	6460,01
455,01	6419,81
455,13	6483,79
455,24	6472,60
455,35	6548,08
455,46	6519,56
455,58	6573,25
455,69	6657,11
455,80	6577,37
455,91	6640,78
456,03	6629,07
456,14	6732,66
456,25	6620,60
456,36	6638,72
456,48	6722,45
456,59	6685,48
456,70	6768,64
456,81	6822,47
456,92	6841,81
457,04	6819,05
457,15	6806,78
457,26	6797,02
457,37	6870,17
457,49	6885,36
457,60	6818,04
457,71	6876,25
457,82	7077,99
457,93	6980,65
458,05	7032,02
458,16	6943,75
458,27	7036,22
458,38	7031,97
458,49	7166,73
458,61	7078,66
458,72	7026,98
458,83	7152,04
458,94	7069,76
459,05	7146,73
459,17	7208,49
459,28	7202,05
459,39	7156,51
459,50	7158,32
459,61	7253,69
459,72	7280,62
459,84	7265,89
459,95	7246,34
460,06	7308,19
460,17	7300,15
460,28	7336,53
460,39	7381,07
460,51	7355,74
460,62	7494,13
460,73	7487,40
460,84	7489,18
460,95	7488,28
461,06	7548,57
461,18	7542,72
461,29	7622,17
461,40	7516,41
461,51	7562,65
461,62	7544,10
461,73	7660,84
461,84	7664,55
461,96	7712,93
462,07	7760,77
462,18	7700,75
462,29	7880,43
462,40	7822,42
462,51	7835,95
462,62	7857,87
462,73	7825,67
462,85	7830,39
462,96	7951,39
463,07	7935,48
463,18	7989,83
463,29	8052,33
463,40	8020,83
463,51	8003,72
463,62	8115,29
463,73	8138,91
463,85	8127,67
463,96	8132,76
464,07	8204,62
464,18	8293,66
464,29	8193,50
464,40	8328,91
464,51	8311,92
464,62	8347,26
464,73	8331,35
464,84	8313,03
464,95	8262,41
465,06	8384,32
465,18	8445,63
465,29	8493,74
465,40	8356,08
465,51	8485,84
465,62	8468,23
465,73	8542,65
465,84	8552,97
465,95	8654,60
466,06	8599,44
466,17	8632,14
466,28	8698,80
466,39	8670,78
466,50	8673,42
466,61	8807,11
466,72	8812,27
466,83	8818,14
466,95	8858,01
467,06	8893,73
467,17	8873,49
467,28	9040,24
467,39	9010,70
467,50	9030,23
467,61	9060,76
467,72	8923,81
467,83	9177,61
467,94	9089,84
468,05	9174,13
468,16	9127,26
468,27	9308,41
468,38	9291,40
468,49	9208,08
468,60	9339,42
468,71	9420,25
468,82	9470,06
468,93	9410,35
469,04	9507,86
469,15	9497,15
469,26	9626,80
469,37	9587,00
469,48	9717,80
469,59	9834,70
469,70	9761,96
469,81	9808,38
469,92	9760,69
470,03	9819,59
470,14	10009,09
470,25	10024,26
470,36	9959,36
470,47	10091,94
470,58	10024,57
470,69	10111,08
470,80	10176,10
470,91	10170,92
471,02	10237,07
471,13	10223,64
471,24	10326,51
471,35	10372,75
471,46	10519,09
471,56	10454,44
471,67	10476,40
471,78	10546,53
471,89	10638,61
472,00	10667,11
472,11	10699,20
472,22	10694,18
472,33	10802,23
472,44	10745,71
472,55	10978,24
472,66	10907,85
472,77	10988,46
472,88	11013,79
472,99	10853,00
473,10	11044,57
473,21	11087,94
473,32	11267,07
473,42	11022,06
473,53	11188,30
473,64	11346,73
473,75	11455,20
473,86	11336,81
473,97	11576,92
474,08	11485,12
474,19	11620,10
474,30	11496,85
474,41	11561,05
474,52	11581,84
474,62	11609,26
474,73	11673,41
474,84	11788,44
474,95	11794,58
475,06	11727,63
475,17	11892,66
475,28	11862,38
475,39	11884,73
475,50	12063,87
475,60	11991,03
475,71	12184,02
475,82	12142,39
475,93	12144,83
476,04	12178,60
476,15	12281,83
476,26	12423,61
476,37	12266,71
476,47	12440,26
476,58	12429,62
476,69	12456,92
476,80	12552,49
476,91	12565,00
477,02	12796,98
477,13	12860,88
477,23	12948,09
477,34	12920,90
477,45	12991,68
477,56	12941,40
477,67	13127,93
477,78	12980,45
477,89	13231,34
477,99	13157,94
478,10	13363,38
478,21	13382,20
478,32	13664,93
478,43	13415,20
478,54	13500,19
478,64	13427,54
478,75	13903,55
478,86	13690,83
478,97	13748,86
479,08	13789,40
479,18	13784,61
479,29	13896,63
479,40	13830,51
479,51	13898,51
479,62	13814,35
479,72	13920,63
479,83	13891,41
479,94	14234,88
480,05	14244,71
480,16	14355,60
480,26	14548,03
480,37	14417,88
480,48	14581,58
480,59	14550,22
480,70	14676,99
480,80	14591,50
480,91	14889,01
481,02	14753,69
481,13	14765,10
481,24	14964,42
481,34	14864,65
481,45	15019,72
481,56	14910,16
481,67	15164,85
481,77	15246,00
481,88	15186,07
481,99	15130,75
482,10	15517,60
482,20	15373,59
482,31	15343,30
482,42	15479,62
482,53	15510,55
482,63	15787,70
482,74	15780,58
482,85	15815,07
482,96	15877,46
483,06	15780,42
483,17	15903,79
483,28	15938,77
483,39	16034,88
483,49	16092,28
483,60	16156,37
483,71	16140,39
483,81	16293,83
483,92	16293,74
484,03	16604,49
484,14	16573,03
484,24	16566,64
484,35	16604,90
484,46	16664,35
484,57	16643,65
484,67	16758,34
484,78	16822,61
484,89	16929,30
484,99	17006,61
485,10	17088,41
485,21	17222,89
485,31	17157,70
485,42	17118,44
485,53	17389,17
485,63	17250,15
485,74	17393,87
485,85	17512,74
485,96	17554,05
486,06	17561,82
486,17	17741,21
486,28	17748,71
486,38	17791,04
486,49	17959,82
486,60	17835,31
486,70	17897,50
486,81	18014,56
486,92	18119,12
487,02	18100,63
487,13	17960,28
487,24	18179,12
487,34	18337,19
487,45	18433,23
487,56	18350,07
487,66	18516,67
487,77	18642,54
487,87	18556,24
487,98	18822,20
488,09	18694,04
488,19	18779,69
488,30	18833,79
488,41	18831,19
488,51	18829,56
488,62	19149,37
488,73	18991,75
488,83	19180,99
488,94	19090,32
489,04	19303,29
489,15	19432,39
489,26	19526,20
489,36	19598,83
489,47	19477,00
489,58	19628,55
489,68	19758,24
489,79	19616,68
489,89	19914,35
490,00	19831,91
490,11	19768,11
490,21	19913,22
490,32	19928,47
490,42	20214,68
490,53	19984,29
490,64	20047,07
490,74	20011,02
490,85	20247,31
490,95	20369,09
491,06	20352,96
491,16	20526,74
491,27	20509,27
491,38	20504,05
491,48	20541,95
491,59	20642,17
491,69	20529,65
491,80	20696,38
491,90	20687,55
492,01	20928,67
492,12	20891,27
492,22	21014,64
492,33	20905,51
492,43	20930,80
492,54	21062,43
492,64	21091,36
492,75	21211,85
492,86	21247,56
492,96	21334,02
493,07	21269,09
493,17	21544,09
493,28	21555,91
493,38	21630,42
493,49	21565,22
493,59	21584,07
493,70	21652,90
493,80	21822,64
493,91	21518,85
494,01	21577,20
494,12	21687,88
494,22	22080,73
494,33	21944,49
494,43	22062,22
494,54	22145,81
494,64	22107,19
494,75	22159,96
494,86	22196,21
494,96	22167,46
495,07	22126,49
495,17	22288,70
495,28	22421,22
495,38	22264,82
495,49	22345,95
495,59	22464,72
495,69	22608,94
495,80	22391,55
495,90	22608,63
496,01	22944,05
496,11	22756,56
496,22	22624,54
496,32	22816,76
496,43	22828,83
496,53	22773,75
496,64	23126,65
496,74	23075,44
496,85	23068,19
496,95	23245,27
497,06	23101,68
497,16	23171,39
497,27	23492,69
497,37	23494,01
497,48	23226,28
497,58	23445,28
497,68	23281,22
497,79	23461,67
497,89	23459,43
498,00	23803,76
498,10	23665,19
498,21	23913,61
498,31	23735,13
498,42	23761,82
498,52	23796,64
498,62	23673,23
498,73	24040,36
498,83	24248,77
498,94	23914,92
499,04	24277,28
499,15	24010,38
499,25	24096,95
499,35	24470,05
499,46	24315,43
499,56	24430,32
499,67	24451,63
499,77	24178,55
499,87	24539,83
499,98	24398,00
500,08	24499,72
500,19	24517,10
500,29	24625,16
500,39	24516,71
500,50	24799,82
500,60	24826,15
500,71	24658,07
500,81	24856,91
500,91	24840,61
501,02	24834,96
501,12	24979,28
501,22	25012,59
501,33	25145,10
501,43	24987,77
501,54	25228,22
501,64	25059,18
501,74	24989,45
501,85	25278,66
501,95	24946,22
502,05	25550,47
502,16	25447,92
502,26	25505,41
502,37	25358,91
502,47	25443,78
502,57	25498,68
502,68	25450,90
502,78	25629,27
502,88	25544,96
502,99	25790,60
503,09	25848,79
503,19	25643,98
503,30	25953,87
503,40	26008,79
503,50	25807,75
503,61	26149,28
503,71	26069,62
503,81	25907,09
503,92	25968,22
504,02	26176,40
504,12	26111,61
504,23	26219,33
504,33	26228,22
504,43	26441,48
504,54	26380,23
504,64	26098,75
504,74	26581,56
504,84	26545,52
504,95	26633,11
505,05	26704,07
505,15	26701,85
505,26	26878,62
505,36	26626,94
505,46	26699,37
505,56	27039,56
505,67	26940,51
505,77	26957,69
505,87	26901,22
505,98	27175,20
506,08	27140,71
506,18	27178,97
506,28	26995,65
506,39	27264,10
506,49	27286,27
506,59	27197,21
506,70	27125,71
506,80	27499,41
506,90	27508,54
507,00	27447,08
507,11	27349,63
507,21	27546,53
507,31	27693,87
507,41	27682,66
507,52	27778,25
507,62	27807,45
507,72	27747,52
507,82	27742,68
507,93	27901,44
508,03	27848,83
508,13	27857,57
508,23	27944,22
508,34	27998,86
508,44	28088,26
508,54	28068,48
508,64	28292,55
508,74	28150,99
508,85	28227,69
508,95	28112,26
509,05	28226,33
509,15	28282,81
509,26	28320,70
509,36	28371,78
509,46	28680,60
509,56	28595,63
509,66	28625,73
509,77	28619,59
509,87	28716,20
509,97	28796,85
510,07	28779,90
510,17	28921,50
510,28	28939,60
510,38	28793,28
510,48	28845,62
510,58	29079,82
510,68	29060,25
510,78	29139,78
510,89	29146,38
510,99	29037,61
511,09	29248,48
511,19	29186,29
511,29	29308,63
511,39	29314,01
511,50	29356,86
511,60	29313,31
511,70	29305,90
511,80	29426,48
511,90	29679,61
512,00	29528,20
512,11	29790,59
512,21	29780,08
512,31	29700,37
512,41	29772,05
512,51	29685,16
512,61	29697,62
512,71	29700,94
512,82	29876,07
512,92	29689,50
513,02	29865,09
513,12	29582,86
513,22	30074,92
513,32	29865,27
513,42	30207,34
513,53	30283,45
513,63	30374,82
513,73	30294,05
513,83	30349,42
513,93	30521,30
514,03	30460,35
514,13	30376,78
514,23	30477,60
514,33	30599,69
514,44	30478,73
514,54	30714,92
514,64	30503,79
514,74	30717,77
514,84	30738,02
514,94	30821,63
515,04	30733,07
515,14	30763,44
515,24	30758,22
515,34	30749,14
515,44	30888,34
515,55	30821,65
515,65	31197,74
515,75	30941,43
515,85	31122,93
515,95	31213,08
516,05	31031,19
516,15	31163,27
516,25	31303,63
516,35	31159,72
516,45	31155,07
516,55	31213,62
516,65	31271,86
516,75	31288,49
516,85	31433,05
516,95	31439,17
517,05	31442,32
517,16	31539,01
517,26	31558,34
517,36	31684,43
517,46	31735,17
517,56	31623,85
517,66	31637,54
517,76	31756,52
517,86	31664,57
517,96	31822,06
518,06	31611,26
518,16	31788,86
518,26	32165,57
518,36	31991,66
518,46	31833,90
518,56	31844,90
518,66	31915,37
518,76	32171,29
518,86	32162,12
518,96	32093,49
519,06	32091,32
519,16	32048,74
519,26	32244,44
519,36	32202,21
519,46	32184,74
519,56	32364,35
519,66	32228,69
519,76	32274,38
519,86	32399,04
519,96	32489,25
520,06	32509,34
520,16	32428,08
520,26	32566,31
520,36	32615,69
520,46	32558,17
520,56	32372,78
520,66	32782,89
520,76	32654,56
520,86	32644,54
520,96	32809,96
521,06	32693,42
521,16	32778,24
521,26	32871,97
521,35	32969,73
521,45	32763,37
521,55	32831,97
521,65	33070,09
521,75	32890,32
521,85	32872,70
521,95	32788,97
522,05	32718,15
522,15	32945,24
522,25	33192,53
522,35	33044,33
522,45	31872,34
522,55	33105,82
522,65	33270,13
522,75	32998,55
522,85	33215,17
522,94	32938,21
523,04	32921,73
523,14	33096,80
523,24	33011,83
523,34	33226,90
523,44	33091,85
523,54	33123,42
523,64	33411,03
523,74	33408,46
523,84	33285,39
523,94	33257,88
524,03	33373,32
524,13	33512,21
524,23	33664,07
524,33	33585,22
524,43	33666,66
524,53	33789,53
524,63	33451,82
524,73	33838,75
524,83	33649,53
524,92	33734,55
525,02	33584,54
525,12	33830,95
525,22	33631,30
525,32	33836,04
525,42	34014,52
525,52	33591,10
525,61	34019,49
525,71	34025,28
525,81	34051,31
525,91	34399,30
526,01	34306,31
526,11	33881,75
526,21	34030,68
526,30	33853,87
526,40	34163,06
526,50	34174,43
526,60	34097,00
526,70	33816,36
526,80	34252,46
526,89	34248,10
526,99	34119,22
527,09	34165,93
527,19	34169,34
527,29	34133,30
527,39	34264,46
527,48	34268,57
527,58	34359,21
527,68	34519,64
527,78	34378,42
527,88	34099,26
527,97	34436,47
528,07	34206,61
528,17	34376,77
528,27	34484,95
528,37	34054,86
528,46	34497,06
528,56	34521,90
528,66	34607,34
528,76	34792,78
528,86	34457,36
528,95	34569,89
529,05	34529,38
529,15	34735,09
529,25	34441,99
529,35	34506,71
529,44	34676,72
529,54	34618,66
529,64	34587,39
529,74	34746,09
529,83	34870,72
529,93	34665,64
530,03	34926,74
530,13	34733,85
530,22	34585,83
530,32	34860,44
530,42	34743,04
530,52	34808,53
530,61	35119,53
530,71	34860,46
530,81	34801,41
530,91	34983,22
531,00	35167,51
531,10	34923,76
531,20	35036,53
531,30	34615,48
531,39	35105,65
531,49	34928,96
531,59	34781,89
531,69	34983,76
531,78	34854,52
531,88	35049,36
531,98	34985,50
532,07	35104,91
532,17	34839,24
532,27	34662,48
532,37	35383,82
532,46	35151,53
532,56	35431,09
532,66	35277,40
532,75	35496,97
532,85	35462,66
532,95	35313,94
533,04	35243,78
533,14	35414,89
533,24	35125,13
533,34	35216,54
533,43	35341,02
533,53	35048,73
533,63	35396,02
533,72	35284,93
533,82	35267,48
533,92	35562,39
534,01	35276,81
534,11	35323,50
534,21	35582,25
534,30	35484,83
534,40	35406,14
534,50	35148,46
534,59	35110,97
534,69	35645,96
534,79	35897,97
534,88	35174,01
534,98	35499,16
535,08	35369,96
535,17	35146,29
535,27	35909,05
535,36	35905,14
535,46	35686,18
535,56	35902,27
535,65	35515,95
535,75	35887,19
535,85	35337,99
535,94	35566,95
536,04	35843,06
536,14	35708,03
536,23	36079,12
536,33	35661,80
536,42	35582,82
536,52	35881,59
536,62	35925,95
536,71	36033,79
536,81	35822,29
536,90	35886,06
537,00	35946,67
537,10	35942,81
537,19	35881,07
537,29	36030,22
537,38	35936,55
537,48	36030,06
537,58	35737,59
537,67	35824,82
537,77	36201,87
537,86	35995,10
537,96	35815,90
538,06	35801,23
538,15	36124,41
538,25	35959,26
538,34	36499,54
538,44	35896,28
538,53	36027,89
538,63	36291,48
538,73	36451,29
538,82	36132,75
538,92	36075,98
539,01	36185,97
539,11	36238,17
539,20	36275,27
539,30	36378,86
539,39	36098,60
539,49	36478,05
539,59	36092,88
539,68	36505,41
539,78	36528,89
539,87	36476,87
539,97	36542,18
540,06	36380,24
540,16	36692,30
540,25	36490,73
540,35	36500,69
540,44	36323,95
540,54	36484,99
540,63	36538,41
540,73	37039,48
540,82	36142,89
540,92	36629,91
541,01	36423,32
541,11	36789,84
541,20	36713,32
541,30	36626,61
541,39	36663,74
541,49	36414,82
541,58	36545,37
541,68	37047,93
541,77	36826,76
541,87	36752,59
541,96	36855,76
542,06	36996,77
542,15	36802,90
542,25	36810,38
542,34	36963,66
542,44	36770,54
542,53	36868,37
542,63	36889,68
542,72	36913,61
542,82	37087,82
542,91	36829,54
543,01	37343,88
543,10	37136,16
543,20	36746,58
543,29	36873,65
543,38	37078,96
543,48	37050,73
543,57	37240,24
543,67	36946,22
543,76	36941,13
543,86	37218,98
543,95	37080,81
544,05	36892,03
544,14	37048,88
544,23	37415,49
544,33	37030,80
544,42	36996,25
544,52	37309,87
544,61	37259,77
544,71	37409,55
544,80	37139,07
544,89	37571,49
544,99	37396,62
545,08	37403,90
545,18	37387,70
545,27	37308,65
545,36	37710,51
545,46	37295,00
545,55	37321,17
545,65	37470,04
545,74	37489,82
545,84	37542,52
545,93	37368,89
546,02	37521,86
546,12	37597,95
546,21	37753,18
546,30	37695,82
546,40	37614,22
546,49	37352,60
546,59	37617,07
546,68	37848,23
546,77	37551,29
546,87	37743,46
546,96	37716,21
547,05	37710,99
547,15	37605,57
547,24	37768,93
547,34	37532,35
547,43	37729,34
547,52	38016,74
547,62	37870,40
547,71	38057,67
547,80	37713,36
547,90	38021,62
547,99	38030,48
548,08	37810,40
548,18	37727,62
548,27	37921,22
548,36	38020,47
548,46	37796,86
548,55	37954,80
548,64	38042,93
548,74	37856,88
548,83	38169,51
548,92	38232,28
549,02	38011,75
549,11	38162,57
549,20	38268,53
549,30	37978,66
549,39	38181,24
549,48	38095,41
549,58	38004,79
549,67	38257,68
549,76	38006,60
549,85	38144,02
549,95	38079,66
550,04	38448,28
550,13	38422,00
550,23	38372,53
550,32	38082,14
550,41	38507,69
550,50	38318,02
550,60	38317,43
550,69	38362,45
550,78	38353,34
550,88	38198,64
550,97	38255,94
551,06	38502,51
551,15	38152,31
551,25	38540,77
551,34	38151,38
551,43	38288,01
551,52	38261,12
551,62	38487,83
551,71	38770,10
551,80	38399,92
551,89	38563,62
551,99	38490,38
552,08	38398,74
552,17	38694,67
552,26	38460,30
552,36	38336,89
552,45	38675,41
552,54	38556,61
552,63	38619,12
552,73	38677,29
552,82	38702,10
552,91	38530,58
553,00	38707,98
553,10	38852,56
553,19	38716,79
553,28	38868,18
553,37	38790,15
553,46	38780,25
553,56	38811,84
553,65	38655,39
553,74	38806,28
553,83	38782,71
553,92	39069,28
554,02	38914,19
554,11	38737,54
554,20	38812,16
554,29	38973,85
554,38	38748,04
554,48	38856,25
554,57	39074,12
554,66	38935,16
554,75	38862,89
554,84	38988,31
554,94	38910,66
555,03	39069,78
555,12	38967,16
555,21	39014,00
555,30	39042,88
555,39	39049,26
555,49	39040,26
555,58	38816,27
555,67	38891,59
555,76	39228,30
555,85	38905,74
555,94	39115,04
556,03	38964,38
556,13	39295,96
556,22	39169,77
556,31	39245,23
556,40	38919,93
556,49	39324,14
556,58	38989,64
556,67	39183,02
556,77	39336,48
556,86	39143,20
556,95	39100,13
557,04	39222,16
557,13	39194,20
557,22	39219,81
557,31	39182,81
557,40	39276,62
557,50	39303,99
557,59	39257,00
557,68	39502,56
557,77	39409,61
557,86	39273,07
557,95	39239,99
558,04	39258,40
558,13	39343,89
558,22	39083,40
558,31	39256,33
558,41	39049,33
558,50	39356,68
558,59	39510,99
558,68	39275,51
558,77	39456,27
558,86	39255,51
558,95	39275,47
559,04	39675,30
559,13	39130,93
559,22	39634,01
559,31	39383,87
559,40	39420,37
559,49	40110,04
559,59	39124,31
559,68	39486,90
559,77	39680,88
559,86	39266,07
559,95	39490,19
560,04	39567,57
560,13	39360,14
560,22	39420,28
560,31	39371,98
560,40	39272,35
560,49	39693,40
560,58	39281,23
560,67	39578,22
560,76	39707,97
560,85	39407,98
560,94	39536,39
561,03	39464,14
561,12	39534,10
561,21	39615,12
561,30	39334,54
561,39	39543,10
561,48	39447,12
561,57	39230,38
561,66	39574,98
561,75	39584,50
561,84	39546,01
561,93	39398,08
562,02	39676,00
562,11	39624,95
562,20	39555,68
562,29	39529,54
562,38	39399,94
562,47	39657,94
562,56	39276,64
562,65	39637,81
562,74	39396,77
562,83	39655,09
562,92	39630,46
563,01	39638,82
563,10	39911,07
563,19	39534,31
563,28	39511,19
563,37	39556,18
563,46	39832,63
563,55	39191,08
563,64	39450,35
563,73	39609,88
563,82	39413,38
563,91	39501,25
564,00	39467,12
564,09	39310,72
564,18	39468,12
564,27	39755,18
564,35	39595,50
564,44	39522,56
564,53	39910,79
564,62	39402,33
564,71	39643,37
564,80	39287,58
564,89	39424,82
564,98	39706,93
565,07	39534,28
565,16	39530,33
565,25	39659,52
565,34	39386,88
565,43	39525,00
565,51	39539,30
565,60	39485,47
565,69	39490,29
565,78	39830,66
565,87	39480,79
565,96	39532,39
566,05	39509,49
566,14	39575,03
566,23	39629,54
566,32	39535,08
566,40	39549,88
566,49	39585,51
566,58	39607,48
566,67	39742,50
566,76	39593,56
566,85	39472,00
566,94	39457,13
567,03	39570,33
567,11	39465,07
567,20	39461,29
567,29	39615,21
567,38	39540,36
567,47	39550,26
567,56	39566,10
567,65	39430,90
567,73	39099,61
567,82	39199,65
567,91	39275,92
568,00	39511,39
568,09	39463,17
568,18	39497,67
568,27	39461,70
568,35	39414,56
568,44	39713,94
568,53	39184,53
568,62	39457,81
568,71	39290,04
568,80	39609,02
568,88	39362,31
568,97	39595,48
569,06	39366,22
569,15	39452,12
569,24	39369,25
569,32	39420,14
569,41	39211,65
569,50	39075,81
569,59	39292,64
569,68	39382,08
569,76	39349,86
569,85	39508,88
569,94	39266,77
570,03	39291,08
570,12	39423,62
570,20	39588,68
570,29	39249,55
570,38	39041,98
570,47	39589,15
570,56	39457,70
570,64	39389,41
570,73	39124,60
570,82	39296,78
570,91	39460,18
570,99	39181,41
571,08	39149,39
571,17	39069,71
571,26	39337,75
571,34	39167,08
571,43	39308,91
571,52	39424,82
571,61	39140,76
571,69	39259,20
571,78	39249,27
571,87	39393,52
571,96	39301,95
572,04	39458,26
572,13	39171,54
572,22	39387,03
572,31	39124,08
572,39	39510,22
572,48	39294,54
572,57	39134,84
572,66	39079,97
572,74	39420,84
572,83	38952,27
572,92	39264,05
573,00	39151,06
573,09	39022,68
573,18	38972,97
573,27	39217,95
573,35	39360,73
573,44	39136,55
573,53	38860,16
573,61	38940,60
573,70	39316,57
573,79	39168,58
573,87	39235,22
573,96	39038,25
574,05	39082,75
574,14	39160,85
574,22	39208,73
574,31	38857,38
574,40	39202,23
574,48	39192,60
574,57	39111,97
574,66	39126,95
574,74	38697,85
574,83	38966,23
574,92	38990,93
575,00	38837,06
575,09	38667,98
575,18	39047,59
575,26	39147,09
575,35	38877,89
575,43	38598,35
575,52	39084,74
575,61	38865,17
575,69	38982,41
575,78	38779,71
575,87	38818,39
575,95	38976,81
576,04	39192,89
576,13	38998,66
576,21	38701,76
576,30	38957,69
576,38	38902,32
576,47	38779,48
576,56	38849,42
576,64	38692,16
576,73	38608,07
576,82	38901,10
576,90	38842,30
576,99	39052,81
577,07	38932,94
577,16	38546,76
577,25	38723,28
577,33	38527,28
577,42	38579,94
577,50	38464,82
577,59	38779,30
577,68	38428,05
577,76	38879,95
577,85	38643,28
577,93	38605,38
578,02	38695,62
578,10	38363,15
578,19	38538,85
578,28	38416,26
578,36	38990,75
578,45	38727,41
578,53	38478,31
578,62	38773,06
578,70	38705,13
578,79	38593,34
578,88	38720,88
578,96	38718,80
579,05	38429,50
579,13	38427,94
579,22	38338,20
579,30	38373,52
579,39	38296,49
579,47	38428,57
579,56	38538,47
579,64	38447,94
579,73	38504,80
579,82	38400,55
579,90	38561,72
579,99	38766,21
580,07	38532,66
580,16	38544,34
580,24	38545,63
580,33	38287,11
580,41	38337,21
580,50	38374,74
580,58	38022,75
580,67	38500,55
580,75	38251,33
580,84	38279,58
580,92	38137,91
581,01	38627,05
581,09	38036,81
581,18	38538,97
581,26	38228,60
581,35	38125,60
581,43	38289,30
581,52	38426,67
581,60	38252,83
581,69	38378,02
581,77	38288,10
581,86	38209,93
581,94	38468,10
582,02	38301,73
582,11	38267,74
582,19	38314,23
582,28	38292,64
582,36	38217,17
582,45	38128,04
582,53	38385,39
582,62	37946,24
582,70	38100,29
582,79	38164,60
582,87	38008,43
582,96	38140,33
583,04	38139,13
583,12	38061,58
583,21	38058,16
583,29	37933,81
583,38	38195,54
583,46	38194,27
583,55	37811,26
583,63	38095,52
583,71	38036,18
583,80	38213,55
583,88	37870,51
583,97	38180,90
584,05	37795,89
584,13	38054,16
584,22	38116,56
584,30	38111,84
584,39	38056,92
584,47	37984,20
584,55	38122,07
584,64	38083,05
584,72	38021,89
584,81	37835,37
584,89	37880,97
584,97	37956,70
585,06	37875,23
585,14	37833,31
585,23	37755,98
585,31	38074,48
585,39	37709,95
585,48	37802,35
585,56	38083,68
585,64	37831,73
585,73	38066,21
585,81	37668,28
585,90	37940,13
585,98	37695,55
586,06	38146,48
586,15	37962,64
586,23	37548,03
586,31	37889,63
586,40	37834,01
586,48	38017,62
586,56	37520,78
586,65	37781,47
586,73	37817,24
586,81	37744,52
586,90	37708,98
586,98	37728,70
587,06	37849,31
587,15	37712,50
587,23	37844,86
587,31	38029,37
587,40	37593,02
587,48	37668,10
587,56	37777,61
587,65	37636,03
587,73	38009,42
587,81	37656,19
587,90	37712,86
587,98	37502,70
588,06	37609,93
588,14	37500,26
588,23	37487,76
588,31	37860,68
588,39	37506,93
588,48	37577,34
588,56	37601,25
588,64	37466,20
588,72	37548,91
588,81	37653,77
588,89	37726,51
588,97	37583,26
589,06	37624,35
589,14	37357,91
589,22	37544,69
589,30	37629,63
589,39	37420,78
589,47	37396,13
589,55	37714,67
589,63	37402,72
589,72	37410,86
589,80	37326,00
589,88	37402,18
589,96	37698,26
590,05	37415,70
590,13	37510,92
590,21	37350,64
590,29	37410,14
590,38	37378,54
590,46	37209,42
590,54	37398,00
590,62	37553,45
590,71	37232,06
590,79	37036,50
590,87	37613,05
590,95	37168,09
591,03	37358,82
591,12	37527,15
591,20	37396,33
591,28	37454,61
591,36	37401,71
591,44	37142,55
591,53	37361,37
591,61	37228,90
591,69	37388,49
591,77	37236,42
591,85	37269,73
591,94	37240,11
592,02	36951,14
592,10	37316,22
592,18	37387,56
592,26	37321,10
592,34	37216,83
592,43	37163,50
592,51	36903,12
592,59	36977,36
592,67	37230,73
592,75	37278,77
592,84	36781,05
592,92	36906,33
593,00	36861,99
593,08	37220,81
593,16	37058,82
593,24	37183,95
593,32	37184,38
593,41	37112,25
593,49	36548,62
593,57	36710,27
593,65	36874,96
593,73	36787,83
593,81	36724,03
593,89	36601,28
593,98	37018,98
594,06	36841,68
594,14	37081,22
594,22	36991,32
594,30	36721,43
594,38	36859,33
594,46	37303,22
594,54	37116,25
594,62	36838,60
594,71	37103,16
594,79	37017,65
594,87	36761,27
594,95	36735,98
595,03	36981,76
595,11	36681,12
595,19	36874,85
595,27	36903,01
595,35	36675,83
595,43	36853,70
595,52	36715,74
595,60	36719,69
595,68	36769,02
595,76	36578,95
595,84	36675,87
595,92	36535,00
596,00	36750,76
596,08	36792,64
596,16	36745,52
596,24	36564,46
596,32	36489,37
596,40	36625,14
596,48	36641,09
596,56	36536,92
596,64	36419,45
596,73	36549,07
596,81	36551,54
596,89	36445,87
596,97	36385,73
597,05	36595,11
597,13	36446,48
597,21	36660,19
597,29	36334,87
597,37	36564,94
597,45	36286,73
597,53	36594,99
597,61	36401,51
597,69	36515,31
597,77	36481,44
597,85	36472,06
597,93	36284,11
598,01	36268,61
598,09	36346,93
598,17	36424,85
598,25	35921,66
598,33	36258,60
598,41	36287,88
598,49	36078,15
598,57	36147,30
598,65	36298,10
598,73	36235,55
598,81	36112,91
598,89	36292,36
598,97	35982,54
599,05	36286,28
599,13	36106,56
599,21	36239,64
599,29	36123,68
599,37	36135,12
599,45	36260,81
599,53	35876,96
599,61	35993,47
599,69	36074,15
599,77	35854,15
599,85	35999,55
599,93	35977,13
600,00	36122,53
600,08	35858,97
600,16	35875,19
600,24	35992,23
600,32	35904,19
600,40	35746,86
600,48	36035,10
600,56	35901,70
600,64	35692,78
600,72	35819,44
600,80	35652,71
600,88	35811,47
600,96	35905,14
601,04	35575,59
601,12	35615,20
601,19	35487,61
601,27	35618,86
601,35	35744,28
601,43	35754,29
601,51	35639,15
601,59	35510,89
601,67	35770,63
601,75	35399,41
601,83	35551,45
601,91	35490,55
601,98	35428,65
602,06	35450,66
602,14	35584,02
602,22	35594,43
602,30	35458,39
602,38	35500,24
602,46	35317,42
602,54	35278,62
602,61	35176,16
602,69	35315,59
602,77	35200,52
602,85	35409,78
602,93	35201,72
603,01	35094,33
603,09	35293,85
603,17	35183,91
603,24	35297,74
603,32	35116,25
603,40	35177,40
603,48	35190,17
603,56	35007,40
603,64	35128,48
603,71	35001,93
603,79	35152,28
603,87	34996,55
603,95	34992,17
604,03	34841,91
604,11	34845,44
604,18	34905,43
604,26	34674,05
604,34	35089,09
604,42	34744,17
604,50	34882,45
604,57	34923,85
604,65	34753,62
604,73	34724,99
604,81	35024,10
604,89	34664,13
604,96	34866,32
605,04	34668,38
605,12	34597,06
605,20	34557,51
605,28	34493,85
605,35	34423,07
605,43	34825,21
605,51	34449,54
605,59	34414,31
605,67	34355,12
605,74	34560,77
605,82	34488,93
605,90	34463,50
605,98	34347,64
606,05	34384,43
606,13	34167,58
606,21	34355,44
606,29	34346,33
606,36	34405,22
606,44	34165,93
606,52	34227,78
606,60	34248,71
606,67	34196,23
606,75	33919,09
606,83	34129,66
606,91	34073,34
606,98	34134,47
607,06	34016,80
607,14	34023,97
607,22	33922,07
607,29	34064,96
607,37	33888,83
607,45	33757,53
607,52	33825,33
607,60	33863,43
607,68	33836,94
607,76	33737,17
607,83	33691,79
607,91	33856,99
607,99	33828,15
608,06	33863,83
608,14	33621,54
608,22	33817,44
608,30	33490,28
608,37	33546,80
608,45	33453,81
608,53	33461,99
608,60	33354,81
608,68	33164,60
608,76	33568,86
608,83	33550,94
608,91	33421,86
608,99	33366,24
609,06	33203,69
609,14	33182,23
609,22	33357,32
609,29	33232,78
609,37	33259,33
609,45	33209,43
609,52	33103,27
609,60	32869,87
609,68	33048,87
609,75	33185,64
609,83	32774,24
609,91	33025,01
609,98	32894,71
610,06	32876,36
610,13	32629,36
610,21	32833,99
610,29	32619,12
610,36	32707,89
610,44	32687,62
610,52	32712,61
610,59	32590,67
610,67	32541,00
610,74	32446,47
610,82	32411,99
610,90	32329,16
610,97	32288,03
611,05	32220,19
611,13	32389,93
611,20	32199,40
611,28	32100,88
611,35	32287,67
611,43	32133,60
611,51	31998,87
611,58	31809,52
611,66	31978,84
611,73	31765,61
611,81	31734,81
611,88	31409,84
611,96	31751,89
612,04	31598,70
612,11	31646,20
612,19	31457,10
612,26	31303,31
612,34	31283,07
612,41	31362,34
612,49	31232,88
612,57	31049,33
612,64	31042,53
612,72	30818,56
612,79	31053,54
612,87	30867,98
612,94	30631,49
613,02	30859,71
613,09	30783,60
613,17	30403,36
613,24	30568,80
613,32	30347,07
613,40	30265,92
613,47	30418,70
613,55	29879,44
613,62	30058,06
613,70	29992,46
613,77	30009,11
613,85	29756,82
613,92	29802,95
614,00	29525,89
614,07	29523,18
614,15	29290,12
614,22	29435,48
614,30	28978,20
614,37	29349,63
614,45	29020,39
614,52	28982,04
614,60	28889,73
614,67	28803,24
614,75	28631,77
614,82	28626,57
614,90	28499,52
614,97	28276,39
615,05	28331,12
615,12	28057,12
615,20	27933,30
615,27	27760,18
615,34	27968,44
615,42	27704,88
615,49	27672,54
615,57	27448,14
615,64	27202,07
615,72	27241,55
615,79	27137,37
615,87	26795,43
615,94	26903,36
616,02	26677,06
616,09	26389,05
616,16	26371,85
616,24	26446,42
616,31	26002,08
616,39	26043,09
616,46	25847,25
616,54	25802,98
616,61	25865,40
616,68	25542,63
616,76	25284,40
616,83	25221,49
616,91	24949,81
616,98	24937,92
617,06	24950,33
617,13	24642,18
617,20	24502,91
617,28	24235,84
617,35	24180,16
617,43	24132,66
617,50	23898,54
617,57	23717,57
>>>>>End Processed Spectral Data<<<<<
